Создан как новый массив данных;Образец 006 полученный BalashovM Дата понедельник, апреля 12 2021
cm-1;A
4000,00;0,0084
3999,00;0,0084
3998,00;0,0084
3997,00;0,0084
3996,00;0,0084
3995,00;0,0084
3994,00;0,0085
3993,00;0,0085
3992,00;0,0085
3991,00;0,0085
3990,00;0,0085
3989,00;0,0084
3988,00;0,0084
3987,00;0,0084
3986,00;0,0084
3985,00;0,0084
3984,00;0,0085
3983,00;0,0085
3982,00;0,0085
3981,00;0,0085
3980,00;0,0085
3979,00;0,0085
3978,00;0,0085
3977,00;0,0085
3976,00;0,0085
3975,00;0,0085
3974,00;0,0085
3973,00;0,0085
3972,00;0,0085
3971,00;0,0085
3970,00;0,0085
3969,00;0,0085
3968,00;0,0085
3967,00;0,0085
3966,00;0,0085
3965,00;0,0085
3964,00;0,0085
3963,00;0,0085
3962,00;0,0085
3961,00;0,0085
3960,00;0,0086
3959,00;0,0086
3958,00;0,0086
3957,00;0,0086
3956,00;0,0086
3955,00;0,0086
3954,00;0,0086
3953,00;0,0086
3952,00;0,0086
3951,00;0,0086
3950,00;0,0086
3949,00;0,0086
3948,00;0,0086
3947,00;0,0086
3946,00;0,0086
3945,00;0,0086
3944,00;0,0086
3943,00;0,0086
3942,00;0,0086
3941,00;0,0086
3940,00;0,0086
3939,00;0,0086
3938,00;0,0086
3937,00;0,0086
3936,00;0,0086
3935,00;0,0086
3934,00;0,0086
3933,00;0,0086
3932,00;0,0086
3931,00;0,0086
3930,00;0,0086
3929,00;0,0086
3928,00;0,0086
3927,00;0,0086
3926,00;0,0086
3925,00;0,0086
3924,00;0,0086
3923,00;0,0086
3922,00;0,0086
3921,00;0,0086
3920,00;0,0086
3919,00;0,0086
3918,00;0,0086
3917,00;0,0086
3916,00;0,0086
3915,00;0,0086
3914,00;0,0086
3913,00;0,0086
3912,00;0,0086
3911,00;0,0086
3910,00;0,0086
3909,00;0,0086
3908,00;0,0086
3907,00;0,0086
3906,00;0,0086
3905,00;0,0086
3904,00;0,0086
3903,00;0,0086
3902,00;0,0086
3901,00;0,0086
3900,00;0,0086
3899,00;0,0086
3898,00;0,0086
3897,00;0,0086
3896,00;0,0086
3895,00;0,0086
3894,00;0,0086
3893,00;0,0086
3892,00;0,0086
3891,00;0,0086
3890,00;0,0086
3889,00;0,0086
3888,00;0,0086
3887,00;0,0086
3886,00;0,0086
3885,00;0,0086
3884,00;0,0086
3883,00;0,0086
3882,00;0,0086
3881,00;0,0086
3880,00;0,0086
3879,00;0,0086
3878,00;0,0086
3877,00;0,0086
3876,00;0,0087
3875,00;0,0087
3874,00;0,0086
3873,00;0,0086
3872,00;0,0087
3871,00;0,0087
3870,00;0,0087
3869,00;0,0087
3868,00;0,0087
3867,00;0,0087
3866,00;0,0087
3865,00;0,0087
3864,00;0,0087
3863,00;0,0087
3862,00;0,0087
3861,00;0,0087
3860,00;0,0087
3859,00;0,0087
3858,00;0,0087
3857,00;0,0087
3856,00;0,0087
3855,00;0,0087
3854,00;0,0087
3853,00;0,0087
3852,00;0,0087
3851,00;0,0087
3850,00;0,0087
3849,00;0,0087
3848,00;0,0087
3847,00;0,0087
3846,00;0,0087
3845,00;0,0087
3844,00;0,0087
3843,00;0,0087
3842,00;0,0087
3841,00;0,0087
3840,00;0,0087
3839,00;0,0087
3838,00;0,0087
3837,00;0,0087
3836,00;0,0087
3835,00;0,0087
3834,00;0,0087
3833,00;0,0087
3832,00;0,0087
3831,00;0,0087
3830,00;0,0087
3829,00;0,0087
3828,00;0,0087
3827,00;0,0087
3826,00;0,0087
3825,00;0,0087
3824,00;0,0087
3823,00;0,0088
3822,00;0,0088
3821,00;0,0087
3820,00;0,0087
3819,00;0,0087
3818,00;0,0087
3817,00;0,0087
3816,00;0,0087
3815,00;0,0087
3814,00;0,0087
3813,00;0,0087
3812,00;0,0087
3811,00;0,0087
3810,00;0,0087
3809,00;0,0087
3808,00;0,0087
3807,00;0,0087
3806,00;0,0087
3805,00;0,0087
3804,00;0,0087
3803,00;0,0087
3802,00;0,0087
3801,00;0,0087
3800,00;0,0087
3799,00;0,0087
3798,00;0,0087
3797,00;0,0087
3796,00;0,0087
3795,00;0,0087
3794,00;0,0087
3793,00;0,0087
3792,00;0,0087
3791,00;0,0087
3790,00;0,0087
3789,00;0,0087
3788,00;0,0087
3787,00;0,0087
3786,00;0,0087
3785,00;0,0087
3784,00;0,0087
3783,00;0,0087
3782,00;0,0087
3781,00;0,0087
3780,00;0,0087
3779,00;0,0087
3778,00;0,0087
3777,00;0,0087
3776,00;0,0087
3775,00;0,0087
3774,00;0,0087
3773,00;0,0087
3772,00;0,0087
3771,00;0,0087
3770,00;0,0087
3769,00;0,0087
3768,00;0,0087
3767,00;0,0087
3766,00;0,0087
3765,00;0,0087
3764,00;0,0087
3763,00;0,0087
3762,00;0,0087
3761,00;0,0087
3760,00;0,0087
3759,00;0,0087
3758,00;0,0087
3757,00;0,0087
3756,00;0,0087
3755,00;0,0087
3754,00;0,0087
3753,00;0,0087
3752,00;0,0087
3751,00;0,0087
3750,00;0,0087
3749,00;0,0087
3748,00;0,0087
3747,00;0,0087
3746,00;0,0087
3745,00;0,0087
3744,00;0,0087
3743,00;0,0087
3742,00;0,0087
3741,00;0,0087
3740,00;0,0087
3739,00;0,0087
3738,00;0,0087
3737,00;0,0087
3736,00;0,0087
3735,00;0,0087
3734,00;0,0087
3733,00;0,0087
3732,00;0,0087
3731,00;0,0087
3730,00;0,0087
3729,00;0,0087
3728,00;0,0087
3727,00;0,0087
3726,00;0,0087
3725,00;0,0087
3724,00;0,0086
3723,00;0,0086
3722,00;0,0086
3721,00;0,0086
3720,00;0,0086
3719,00;0,0086
3718,00;0,0086
3717,00;0,0086
3716,00;0,0086
3715,00;0,0086
3714,00;0,0086
3713,00;0,0086
3712,00;0,0086
3711,00;0,0086
3710,00;0,0086
3709,00;0,0086
3708,00;0,0086
3707,00;0,0086
3706,00;0,0086
3705,00;0,0086
3704,00;0,0086
3703,00;0,0086
3702,00;0,0085
3701,00;0,0085
3700,00;0,0085
3699,00;0,0085
3698,00;0,0085
3697,00;0,0085
3696,00;0,0084
3695,00;0,0084
3694,00;0,0084
3693,00;0,0084
3692,00;0,0084
3691,00;0,0084
3690,00;0,0084
3689,00;0,0084
3688,00;0,0084
3687,00;0,0084
3686,00;0,0084
3685,00;0,0085
3684,00;0,0085
3683,00;0,0085
3682,00;0,0085
3681,00;0,0085
3680,00;0,0085
3679,00;0,0085
3678,00;0,0085
3677,00;0,0085
3676,00;0,0085
3675,00;0,0085
3674,00;0,0085
3673,00;0,0085
3672,00;0,0086
3671,00;0,0086
3670,00;0,0086
3669,00;0,0086
3668,00;0,0086
3667,00;0,0086
3666,00;0,0087
3665,00;0,0087
3664,00;0,0087
3663,00;0,0087
3662,00;0,0087
3661,00;0,0088
3660,00;0,0088
3659,00;0,0088
3658,00;0,0089
3657,00;0,0089
3656,00;0,0089
3655,00;0,0090
3654,00;0,0090
3653,00;0,0090
3652,00;0,0091
3651,00;0,0091
3650,00;0,0092
3649,00;0,0093
3648,00;0,0093
3647,00;0,0093
3646,00;0,0094
3645,00;0,0094
3644,00;0,0095
3643,00;0,0095
3642,00;0,0096
3641,00;0,0096
3640,00;0,0097
3639,00;0,0097
3638,00;0,0097
3637,00;0,0098
3636,00;0,0098
3635,00;0,0099
3634,00;0,0099
3633,00;0,0100
3632,00;0,0101
3631,00;0,0102
3630,00;0,0103
3629,00;0,0104
3628,00;0,0104
3627,00;0,0105
3626,00;0,0106
3625,00;0,0107
3624,00;0,0108
3623,00;0,0109
3622,00;0,0110
3621,00;0,0110
3620,00;0,0111
3619,00;0,0111
3618,00;0,0112
3617,00;0,0113
3616,00;0,0114
3615,00;0,0115
3614,00;0,0116
3613,00;0,0117
3612,00;0,0118
3611,00;0,0119
3610,00;0,0120
3609,00;0,0121
3608,00;0,0122
3607,00;0,0123
3606,00;0,0124
3605,00;0,0126
3604,00;0,0127
3603,00;0,0128
3602,00;0,0129
3601,00;0,0130
3600,00;0,0131
3599,00;0,0133
3598,00;0,0134
3597,00;0,0135
3596,00;0,0137
3595,00;0,0138
3594,00;0,0140
3593,00;0,0141
3592,00;0,0142
3591,00;0,0143
3590,00;0,0145
3589,00;0,0146
3588,00;0,0148
3587,00;0,0149
3586,00;0,0151
3585,00;0,0152
3584,00;0,0153
3583,00;0,0155
3582,00;0,0157
3581,00;0,0158
3580,00;0,0160
3579,00;0,0162
3578,00;0,0163
3577,00;0,0165
3576,00;0,0167
3575,00;0,0168
3574,00;0,0170
3573,00;0,0172
3572,00;0,0173
3571,00;0,0175
3570,00;0,0177
3569,00;0,0179
3568,00;0,0182
3567,00;0,0184
3566,00;0,0186
3565,00;0,0189
3564,00;0,0191
3563,00;0,0194
3562,00;0,0196
3561,00;0,0198
3560,00;0,0201
3559,00;0,0203
3558,00;0,0205
3557,00;0,0208
3556,00;0,0210
3555,00;0,0213
3554,00;0,0215
3553,00;0,0218
3552,00;0,0220
3551,00;0,0222
3550,00;0,0225
3549,00;0,0227
3548,00;0,0230
3547,00;0,0232
3546,00;0,0234
3545,00;0,0236
3544,00;0,0237
3543,00;0,0239
3542,00;0,0240
3541,00;0,0241
3540,00;0,0243
3539,00;0,0244
3538,00;0,0245
3537,00;0,0246
3536,00;0,0247
3535,00;0,0247
3534,00;0,0248
3533,00;0,0248
3532,00;0,0248
3531,00;0,0249
3530,00;0,0249
3529,00;0,0249
3528,00;0,0249
3527,00;0,0250
3526,00;0,0250
3525,00;0,0250
3524,00;0,0250
3523,00;0,0250
3522,00;0,0250
3521,00;0,0250
3520,00;0,0250
3519,00;0,0251
3518,00;0,0251
3517,00;0,0252
3516,00;0,0252
3515,00;0,0252
3514,00;0,0252
3513,00;0,0252
3512,00;0,0253
3511,00;0,0253
3510,00;0,0253
3509,00;0,0253
3508,00;0,0254
3507,00;0,0255
3506,00;0,0255
3505,00;0,0256
3504,00;0,0256
3503,00;0,0257
3502,00;0,0257
3501,00;0,0258
3500,00;0,0258
3499,00;0,0259
3498,00;0,0260
3497,00;0,0261
3496,00;0,0262
3495,00;0,0263
3494,00;0,0263
3493,00;0,0264
3492,00;0,0265
3491,00;0,0265
3490,00;0,0266
3489,00;0,0267
3488,00;0,0268
3487,00;0,0269
3486,00;0,0269
3485,00;0,0270
3484,00;0,0271
3483,00;0,0272
3482,00;0,0272
3481,00;0,0273
3480,00;0,0274
3479,00;0,0275
3478,00;0,0276
3477,00;0,0277
3476,00;0,0277
3475,00;0,0278
3474,00;0,0279
3473,00;0,0280
3472,00;0,0281
3471,00;0,0282
3470,00;0,0283
3469,00;0,0284
3468,00;0,0285
3467,00;0,0285
3466,00;0,0286
3465,00;0,0286
3464,00;0,0287
3463,00;0,0288
3462,00;0,0288
3461,00;0,0289
3460,00;0,0290
3459,00;0,0291
3458,00;0,0291
3457,00;0,0292
3456,00;0,0293
3455,00;0,0294
3454,00;0,0294
3453,00;0,0295
3452,00;0,0296
3451,00;0,0296
3450,00;0,0297
3449,00;0,0298
3448,00;0,0299
3447,00;0,0299
3446,00;0,0300
3445,00;0,0300
3444,00;0,0300
3443,00;0,0301
3442,00;0,0301
3441,00;0,0302
3440,00;0,0302
3439,00;0,0303
3438,00;0,0303
3437,00;0,0304
3436,00;0,0305
3435,00;0,0305
3434,00;0,0305
3433,00;0,0305
3432,00;0,0306
3431,00;0,0306
3430,00;0,0306
3429,00;0,0306
3428,00;0,0306
3427,00;0,0307
3426,00;0,0307
3425,00;0,0307
3424,00;0,0307
3423,00;0,0308
3422,00;0,0308
3421,00;0,0308
3420,00;0,0308
3419,00;0,0308
3418,00;0,0308
3417,00;0,0308
3416,00;0,0308
3415,00;0,0308
3414,00;0,0308
3413,00;0,0308
3412,00;0,0308
3411,00;0,0308
3410,00;0,0308
3409,00;0,0308
3408,00;0,0308
3407,00;0,0308
3406,00;0,0308
3405,00;0,0308
3404,00;0,0308
3403,00;0,0309
3402,00;0,0309
3401,00;0,0309
3400,00;0,0309
3399,00;0,0308
3398,00;0,0308
3397,00;0,0308
3396,00;0,0308
3395,00;0,0308
3394,00;0,0308
3393,00;0,0308
3392,00;0,0308
3391,00;0,0308
3390,00;0,0308
3389,00;0,0308
3388,00;0,0308
3387,00;0,0307
3386,00;0,0307
3385,00;0,0307
3384,00;0,0307
3383,00;0,0306
3382,00;0,0306
3381,00;0,0306
3380,00;0,0306
3379,00;0,0306
3378,00;0,0306
3377,00;0,0306
3376,00;0,0305
3375,00;0,0305
3374,00;0,0305
3373,00;0,0305
3372,00;0,0305
3371,00;0,0305
3370,00;0,0305
3369,00;0,0305
3368,00;0,0304
3367,00;0,0304
3366,00;0,0304
3365,00;0,0303
3364,00;0,0303
3363,00;0,0303
3362,00;0,0303
3361,00;0,0303
3360,00;0,0303
3359,00;0,0303
3358,00;0,0303
3357,00;0,0302
3356,00;0,0302
3355,00;0,0302
3354,00;0,0302
3353,00;0,0302
3352,00;0,0302
3351,00;0,0302
3350,00;0,0302
3349,00;0,0301
3348,00;0,0301
3347,00;0,0301
3346,00;0,0300
3345,00;0,0300
3344,00;0,0300
3343,00;0,0300
3342,00;0,0300
3341,00;0,0300
3340,00;0,0300
3339,00;0,0301
3338,00;0,0301
3337,00;0,0300
3336,00;0,0300
3335,00;0,0300
3334,00;0,0300
3333,00;0,0300
3332,00;0,0301
3331,00;0,0301
3330,00;0,0301
3329,00;0,0301
3328,00;0,0301
3327,00;0,0301
3326,00;0,0301
3325,00;0,0301
3324,00;0,0301
3323,00;0,0301
3322,00;0,0302
3321,00;0,0302
3320,00;0,0302
3319,00;0,0302
3318,00;0,0303
3317,00;0,0303
3316,00;0,0303
3315,00;0,0304
3314,00;0,0304
3313,00;0,0304
3312,00;0,0305
3311,00;0,0304
3310,00;0,0304
3309,00;0,0304
3308,00;0,0305
3307,00;0,0305
3306,00;0,0305
3305,00;0,0306
3304,00;0,0306
3303,00;0,0307
3302,00;0,0308
3301,00;0,0308
3300,00;0,0309
3299,00;0,0309
3298,00;0,0309
3297,00;0,0309
3296,00;0,0309
3295,00;0,0310
3294,00;0,0310
3293,00;0,0310
3292,00;0,0311
3291,00;0,0312
3290,00;0,0313
3289,00;0,0313
3288,00;0,0314
3287,00;0,0314
3286,00;0,0315
3285,00;0,0315
3284,00;0,0316
3283,00;0,0316
3282,00;0,0316
3281,00;0,0317
3280,00;0,0317
3279,00;0,0317
3278,00;0,0318
3277,00;0,0318
3276,00;0,0318
3275,00;0,0318
3274,00;0,0318
3273,00;0,0318
3272,00;0,0318
3271,00;0,0319
3270,00;0,0320
3269,00;0,0321
3268,00;0,0322
3267,00;0,0322
3266,00;0,0323
3265,00;0,0323
3264,00;0,0324
3263,00;0,0324
3262,00;0,0325
3261,00;0,0325
3260,00;0,0325
3259,00;0,0325
3258,00;0,0325
3257,00;0,0326
3256,00;0,0326
3255,00;0,0326
3254,00;0,0327
3253,00;0,0327
3252,00;0,0328
3251,00;0,0328
3250,00;0,0328
3249,00;0,0328
3248,00;0,0328
3247,00;0,0329
3246,00;0,0329
3245,00;0,0330
3244,00;0,0331
3243,00;0,0331
3242,00;0,0332
3241,00;0,0332
3240,00;0,0333
3239,00;0,0333
3238,00;0,0333
3237,00;0,0333
3236,00;0,0333
3235,00;0,0333
3234,00;0,0333
3233,00;0,0334
3232,00;0,0335
3231,00;0,0336
3230,00;0,0337
3229,00;0,0338
3228,00;0,0338
3227,00;0,0339
3226,00;0,0339
3225,00;0,0340
3224,00;0,0340
3223,00;0,0341
3222,00;0,0341
3221,00;0,0341
3220,00;0,0342
3219,00;0,0342
3218,00;0,0343
3217,00;0,0343
3216,00;0,0344
3215,00;0,0345
3214,00;0,0345
3213,00;0,0346
3212,00;0,0347
3211,00;0,0347
3210,00;0,0348
3209,00;0,0349
3208,00;0,0349
3207,00;0,0350
3206,00;0,0350
3205,00;0,0351
3204,00;0,0352
3203,00;0,0352
3202,00;0,0353
3201,00;0,0354
3200,00;0,0354
3199,00;0,0355
3198,00;0,0356
3197,00;0,0356
3196,00;0,0357
3195,00;0,0357
3194,00;0,0358
3193,00;0,0359
3192,00;0,0359
3191,00;0,0360
3190,00;0,0361
3189,00;0,0362
3188,00;0,0363
3187,00;0,0363
3186,00;0,0364
3185,00;0,0365
3184,00;0,0365
3183,00;0,0366
3182,00;0,0366
3181,00;0,0367
3180,00;0,0368
3179,00;0,0368
3178,00;0,0369
3177,00;0,0370
3176,00;0,0371
3175,00;0,0371
3174,00;0,0372
3173,00;0,0373
3172,00;0,0373
3171,00;0,0374
3170,00;0,0375
3169,00;0,0375
3168,00;0,0376
3167,00;0,0376
3166,00;0,0377
3165,00;0,0378
3164,00;0,0378
3163,00;0,0379
3162,00;0,0380
3161,00;0,0380
3160,00;0,0381
3159,00;0,0381
3158,00;0,0382
3157,00;0,0382
3156,00;0,0382
3155,00;0,0382
3154,00;0,0381
3153,00;0,0382
3152,00;0,0382
3151,00;0,0384
3150,00;0,0385
3149,00;0,0386
3148,00;0,0387
3147,00;0,0387
3146,00;0,0388
3145,00;0,0389
3144,00;0,0389
3143,00;0,0389
3142,00;0,0389
3141,00;0,0389
3140,00;0,0389
3139,00;0,0389
3138,00;0,0390
3137,00;0,0391
3136,00;0,0392
3135,00;0,0393
3134,00;0,0393
3133,00;0,0393
3132,00;0,0394
3131,00;0,0394
3130,00;0,0394
3129,00;0,0394
3128,00;0,0395
3127,00;0,0396
3126,00;0,0396
3125,00;0,0396
3124,00;0,0396
3123,00;0,0395
3122,00;0,0394
3121,00;0,0393
3120,00;0,0392
3119,00;0,0392
3118,00;0,0392
3117,00;0,0393
3116,00;0,0394
3115,00;0,0395
3114,00;0,0396
3113,00;0,0397
3112,00;0,0397
3111,00;0,0397
3110,00;0,0397
3109,00;0,0397
3108,00;0,0397
3107,00;0,0398
3106,00;0,0398
3105,00;0,0399
3104,00;0,0398
3103,00;0,0398
3102,00;0,0397
3101,00;0,0397
3100,00;0,0397
3099,00;0,0397
3098,00;0,0398
3097,00;0,0398
3096,00;0,0398
3095,00;0,0398
3094,00;0,0397
3093,00;0,0396
3092,00;0,0396
3091,00;0,0395
3090,00;0,0394
3089,00;0,0394
3088,00;0,0394
3087,00;0,0393
3086,00;0,0393
3085,00;0,0392
3084,00;0,0392
3083,00;0,0392
3082,00;0,0391
3081,00;0,0390
3080,00;0,0390
3079,00;0,0389
3078,00;0,0389
3077,00;0,0390
3076,00;0,0391
3075,00;0,0391
3074,00;0,0391
3073,00;0,0391
3072,00;0,0390
3071,00;0,0390
3070,00;0,0389
3069,00;0,0388
3068,00;0,0387
3067,00;0,0387
3066,00;0,0386
3065,00;0,0386
3064,00;0,0386
3063,00;0,0386
3062,00;0,0386
3061,00;0,0386
3060,00;0,0385
3059,00;0,0384
3058,00;0,0384
3057,00;0,0383
3056,00;0,0382
3055,00;0,0381
3054,00;0,0381
3053,00;0,0380
3052,00;0,0380
3051,00;0,0379
3050,00;0,0379
3049,00;0,0378
3048,00;0,0378
3047,00;0,0377
3046,00;0,0377
3045,00;0,0376
3044,00;0,0375
3043,00;0,0375
3042,00;0,0374
3041,00;0,0374
3040,00;0,0374
3039,00;0,0374
3038,00;0,0373
3037,00;0,0372
3036,00;0,0372
3035,00;0,0371
3034,00;0,0370
3033,00;0,0370
3032,00;0,0370
3031,00;0,0369
3030,00;0,0369
3029,00;0,0369
3028,00;0,0368
3027,00;0,0368
3026,00;0,0367
3025,00;0,0366
3024,00;0,0366
3023,00;0,0365
3022,00;0,0365
3021,00;0,0364
3020,00;0,0364
3019,00;0,0363
3018,00;0,0362
3017,00;0,0361
3016,00;0,0360
3015,00;0,0360
3014,00;0,0359
3013,00;0,0358
3012,00;0,0358
3011,00;0,0358
3010,00;0,0358
3009,00;0,0358
3008,00;0,0357
3007,00;0,0357
3006,00;0,0356
3005,00;0,0356
3004,00;0,0355
3003,00;0,0354
3002,00;0,0353
3001,00;0,0352
3000,00;0,0351
2999,00;0,0350
2998,00;0,0350
2997,00;0,0349
2996,00;0,0349
2995,00;0,0349
2994,00;0,0348
2993,00;0,0347
2992,00;0,0347
2991,00;0,0346
2990,00;0,0346
2989,00;0,0346
2988,00;0,0346
2987,00;0,0346
2986,00;0,0346
2985,00;0,0345
2984,00;0,0345
2983,00;0,0344
2982,00;0,0344
2981,00;0,0343
2980,00;0,0343
2979,00;0,0343
2978,00;0,0343
2977,00;0,0343
2976,00;0,0342
2975,00;0,0342
2974,00;0,0342
2973,00;0,0342
2972,00;0,0342
2971,00;0,0343
2970,00;0,0343
2969,00;0,0344
2968,00;0,0344
2967,00;0,0344
2966,00;0,0345
2965,00;0,0346
2964,00;0,0346
2963,00;0,0347
2962,00;0,0347
2961,00;0,0348
2960,00;0,0349
2959,00;0,0349
2958,00;0,0350
2957,00;0,0350
2956,00;0,0350
2955,00;0,0350
2954,00;0,0350
2953,00;0,0350
2952,00;0,0349
2951,00;0,0349
2950,00;0,0348
2949,00;0,0348
2948,00;0,0347
2947,00;0,0346
2946,00;0,0345
2945,00;0,0344
2944,00;0,0343
2943,00;0,0342
2942,00;0,0341
2941,00;0,0340
2940,00;0,0339
2939,00;0,0338
2938,00;0,0336
2937,00;0,0335
2936,00;0,0333
2935,00;0,0332
2934,00;0,0331
2933,00;0,0330
2932,00;0,0328
2931,00;0,0327
2930,00;0,0326
2929,00;0,0325
2928,00;0,0324
2927,00;0,0323
2926,00;0,0323
2925,00;0,0322
2924,00;0,0322
2923,00;0,0321
2922,00;0,0321
2921,00;0,0320
2920,00;0,0320
2919,00;0,0320
2918,00;0,0320
2917,00;0,0320
2916,00;0,0321
2915,00;0,0321
2914,00;0,0322
2913,00;0,0322
2912,00;0,0323
2911,00;0,0324
2910,00;0,0325
2909,00;0,0325
2908,00;0,0326
2907,00;0,0326
2906,00;0,0327
2905,00;0,0328
2904,00;0,0328
2903,00;0,0329
2902,00;0,0330
2901,00;0,0331
2900,00;0,0331
2899,00;0,0332
2898,00;0,0334
2897,00;0,0335
2896,00;0,0336
2895,00;0,0337
2894,00;0,0338
2893,00;0,0339
2892,00;0,0341
2891,00;0,0343
2890,00;0,0345
2889,00;0,0347
2888,00;0,0350
2887,00;0,0353
2886,00;0,0357
2885,00;0,0359
2884,00;0,0361
2883,00;0,0362
2882,00;0,0363
2881,00;0,0362
2880,00;0,0360
2879,00;0,0357
2878,00;0,0355
2877,00;0,0352
2876,00;0,0350
2875,00;0,0347
2874,00;0,0345
2873,00;0,0344
2872,00;0,0342
2871,00;0,0341
2870,00;0,0341
2869,00;0,0340
2868,00;0,0340
2867,00;0,0339
2866,00;0,0339
2865,00;0,0339
2864,00;0,0339
2863,00;0,0338
2862,00;0,0338
2861,00;0,0337
2860,00;0,0336
2859,00;0,0335
2858,00;0,0332
2857,00;0,0330
2856,00;0,0327
2855,00;0,0323
2854,00;0,0319
2853,00;0,0316
2852,00;0,0313
2851,00;0,0310
2850,00;0,0307
2849,00;0,0305
2848,00;0,0303
2847,00;0,0301
2846,00;0,0299
2845,00;0,0297
2844,00;0,0295
2843,00;0,0294
2842,00;0,0292
2841,00;0,0290
2840,00;0,0289
2839,00;0,0288
2838,00;0,0287
2837,00;0,0285
2836,00;0,0284
2835,00;0,0283
2834,00;0,0282
2833,00;0,0281
2832,00;0,0281
2831,00;0,0280
2830,00;0,0279
2829,00;0,0278
2828,00;0,0277
2827,00;0,0276
2826,00;0,0275
2825,00;0,0274
2824,00;0,0274
2823,00;0,0273
2822,00;0,0272
2821,00;0,0271
2820,00;0,0270
2819,00;0,0269
2818,00;0,0269
2817,00;0,0268
2816,00;0,0267
2815,00;0,0267
2814,00;0,0266
2813,00;0,0265
2812,00;0,0264
2811,00;0,0263
2810,00;0,0263
2809,00;0,0262
2808,00;0,0262
2807,00;0,0261
2806,00;0,0261
2805,00;0,0260
2804,00;0,0260
2803,00;0,0259
2802,00;0,0259
2801,00;0,0258
2800,00;0,0257
2799,00;0,0257
2798,00;0,0256
2797,00;0,0256
2796,00;0,0255
2795,00;0,0255
2794,00;0,0255
2793,00;0,0254
2792,00;0,0254
2791,00;0,0253
2790,00;0,0253
2789,00;0,0252
2788,00;0,0252
2787,00;0,0252
2786,00;0,0252
2785,00;0,0252
2784,00;0,0252
2783,00;0,0251
2782,00;0,0251
2781,00;0,0251
2780,00;0,0251
2779,00;0,0251
2778,00;0,0250
2777,00;0,0250
2776,00;0,0250
2775,00;0,0249
2774,00;0,0249
2773,00;0,0250
2772,00;0,0250
2771,00;0,0250
2770,00;0,0250
2769,00;0,0250
2768,00;0,0249
2767,00;0,0249
2766,00;0,0249
2765,00;0,0249
2764,00;0,0249
2763,00;0,0249
2762,00;0,0249
2761,00;0,0249
2760,00;0,0249
2759,00;0,0249
2758,00;0,0248
2757,00;0,0248
2756,00;0,0248
2755,00;0,0248
2754,00;0,0248
2753,00;0,0247
2752,00;0,0247
2751,00;0,0246
2750,00;0,0245
2749,00;0,0245
2748,00;0,0245
2747,00;0,0244
2746,00;0,0244
2745,00;0,0244
2744,00;0,0243
2743,00;0,0242
2742,00;0,0242
2741,00;0,0241
2740,00;0,0241
2739,00;0,0240
2738,00;0,0240
2737,00;0,0239
2736,00;0,0239
2735,00;0,0238
2734,00;0,0238
2733,00;0,0238
2732,00;0,0237
2731,00;0,0237
2730,00;0,0236
2729,00;0,0235
2728,00;0,0234
2727,00;0,0234
2726,00;0,0233
2725,00;0,0233
2724,00;0,0233
2723,00;0,0233
2722,00;0,0233
2721,00;0,0233
2720,00;0,0232
2719,00;0,0232
2718,00;0,0232
2717,00;0,0231
2716,00;0,0231
2715,00;0,0230
2714,00;0,0230
2713,00;0,0229
2712,00;0,0229
2711,00;0,0228
2710,00;0,0228
2709,00;0,0228
2708,00;0,0227
2707,00;0,0227
2706,00;0,0226
2705,00;0,0226
2704,00;0,0225
2703,00;0,0225
2702,00;0,0224
2701,00;0,0224
2700,00;0,0223
2699,00;0,0223
2698,00;0,0222
2697,00;0,0222
2696,00;0,0222
2695,00;0,0221
2694,00;0,0221
2693,00;0,0220
2692,00;0,0220
2691,00;0,0219
2690,00;0,0219
2689,00;0,0219
2688,00;0,0218
2687,00;0,0218
2686,00;0,0218
2685,00;0,0218
2684,00;0,0217
2683,00;0,0217
2682,00;0,0217
2681,00;0,0216
2680,00;0,0216
2679,00;0,0215
2678,00;0,0215
2677,00;0,0215
2676,00;0,0215
2675,00;0,0214
2674,00;0,0214
2673,00;0,0214
2672,00;0,0214
2671,00;0,0213
2670,00;0,0213
2669,00;0,0212
2668,00;0,0212
2667,00;0,0212
2666,00;0,0211
2665,00;0,0211
2664,00;0,0211
2663,00;0,0211
2662,00;0,0211
2661,00;0,0211
2660,00;0,0211
2659,00;0,0211
2658,00;0,0210
2657,00;0,0210
2656,00;0,0210
2655,00;0,0210
2654,00;0,0209
2653,00;0,0209
2652,00;0,0208
2651,00;0,0208
2650,00;0,0207
2649,00;0,0207
2648,00;0,0207
2647,00;0,0207
2646,00;0,0206
2645,00;0,0206
2644,00;0,0205
2643,00;0,0205
2642,00;0,0205
2641,00;0,0204
2640,00;0,0204
2639,00;0,0203
2638,00;0,0203
2637,00;0,0203
2636,00;0,0202
2635,00;0,0202
2634,00;0,0202
2633,00;0,0201
2632,00;0,0201
2631,00;0,0200
2630,00;0,0200
2629,00;0,0200
2628,00;0,0199
2627,00;0,0199
2626,00;0,0199
2625,00;0,0198
2624,00;0,0198
2623,00;0,0198
2622,00;0,0197
2621,00;0,0197
2620,00;0,0196
2619,00;0,0196
2618,00;0,0196
2617,00;0,0195
2616,00;0,0195
2615,00;0,0195
2614,00;0,0194
2613,00;0,0194
2612,00;0,0193
2611,00;0,0193
2610,00;0,0193
2609,00;0,0192
2608,00;0,0192
2607,00;0,0192
2606,00;0,0191
2605,00;0,0191
2604,00;0,0191
2603,00;0,0190
2602,00;0,0190
2601,00;0,0190
2600,00;0,0189
2599,00;0,0189
2598,00;0,0189
2597,00;0,0188
2596,00;0,0188
2595,00;0,0188
2594,00;0,0187
2593,00;0,0187
2592,00;0,0187
2591,00;0,0186
2590,00;0,0186
2589,00;0,0186
2588,00;0,0186
2587,00;0,0185
2586,00;0,0185
2585,00;0,0185
2584,00;0,0184
2583,00;0,0184
2582,00;0,0184
2581,00;0,0184
2580,00;0,0183
2579,00;0,0183
2578,00;0,0183
2577,00;0,0182
2576,00;0,0182
2575,00;0,0182
2574,00;0,0182
2573,00;0,0181
2572,00;0,0181
2571,00;0,0181
2570,00;0,0181
2569,00;0,0180
2568,00;0,0180
2567,00;0,0180
2566,00;0,0180
2565,00;0,0179
2564,00;0,0179
2563,00;0,0179
2562,00;0,0178
2561,00;0,0178
2560,00;0,0178
2559,00;0,0178
2558,00;0,0178
2557,00;0,0178
2556,00;0,0177
2555,00;0,0177
2554,00;0,0177
2553,00;0,0177
2552,00;0,0176
2551,00;0,0176
2550,00;0,0176
2549,00;0,0176
2548,00;0,0176
2547,00;0,0175
2546,00;0,0175
2545,00;0,0175
2544,00;0,0175
2543,00;0,0175
2542,00;0,0174
2541,00;0,0174
2540,00;0,0174
2539,00;0,0174
2538,00;0,0174
2537,00;0,0174
2536,00;0,0173
2535,00;0,0173
2534,00;0,0173
2533,00;0,0173
2532,00;0,0173
2531,00;0,0172
2530,00;0,0172
2529,00;0,0172
2528,00;0,0172
2527,00;0,0172
2526,00;0,0172
2525,00;0,0172
2524,00;0,0171
2523,00;0,0171
2522,00;0,0171
2521,00;0,0171
2520,00;0,0171
2519,00;0,0171
2518,00;0,0171
2517,00;0,0171
2516,00;0,0170
2515,00;0,0170
2514,00;0,0170
2513,00;0,0170
2512,00;0,0170
2511,00;0,0170
2510,00;0,0170
2509,00;0,0170
2508,00;0,0169
2507,00;0,0169
2506,00;0,0169
2505,00;0,0169
2504,00;0,0169
2503,00;0,0169
2502,00;0,0169
2501,00;0,0169
2500,00;0,0169
2499,00;0,0169
2498,00;0,0169
2497,00;0,0168
2496,00;0,0168
2495,00;0,0168
2494,00;0,0168
2493,00;0,0168
2492,00;0,0168
2491,00;0,0168
2490,00;0,0168
2489,00;0,0168
2488,00;0,0168
2487,00;0,0168
2486,00;0,0168
2485,00;0,0168
2484,00;0,0168
2483,00;0,0168
2482,00;0,0168
2481,00;0,0168
2480,00;0,0168
2479,00;0,0168
2478,00;0,0168
2477,00;0,0167
2476,00;0,0167
2475,00;0,0167
2474,00;0,0167
2473,00;0,0167
2472,00;0,0167
2471,00;0,0167
2470,00;0,0167
2469,00;0,0167
2468,00;0,0168
2467,00;0,0168
2466,00;0,0168
2465,00;0,0167
2464,00;0,0167
2463,00;0,0167
2462,00;0,0167
2461,00;0,0167
2460,00;0,0167
2459,00;0,0167
2458,00;0,0167
2457,00;0,0167
2456,00;0,0167
2455,00;0,0167
2454,00;0,0167
2453,00;0,0167
2452,00;0,0167
2451,00;0,0167
2450,00;0,0167
2449,00;0,0167
2448,00;0,0167
2447,00;0,0167
2446,00;0,0167
2445,00;0,0167
2444,00;0,0167
2443,00;0,0167
2442,00;0,0167
2441,00;0,0166
2440,00;0,0166
2439,00;0,0166
2438,00;0,0166
2437,00;0,0166
2436,00;0,0166
2435,00;0,0166
2434,00;0,0166
2433,00;0,0166
2432,00;0,0166
2431,00;0,0165
2430,00;0,0165
2429,00;0,0165
2428,00;0,0165
2427,00;0,0165
2426,00;0,0165
2425,00;0,0165
2424,00;0,0165
2423,00;0,0165
2422,00;0,0165
2421,00;0,0165
2420,00;0,0164
2419,00;0,0164
2418,00;0,0164
2417,00;0,0164
2416,00;0,0164
2415,00;0,0164
2414,00;0,0164
2413,00;0,0164
2412,00;0,0164
2411,00;0,0163
2410,00;0,0163
2409,00;0,0163
2408,00;0,0163
2407,00;0,0163
2406,00;0,0163
2405,00;0,0162
2404,00;0,0162
2403,00;0,0162
2402,00;0,0162
2401,00;0,0162
2400,00;0,0162
2399,00;0,0162
2398,00;0,0162
2397,00;0,0162
2396,00;0,0162
2395,00;0,0162
2394,00;0,0161
2393,00;0,0161
2392,00;0,0161
2391,00;0,0161
2390,00;0,0161
2389,00;0,0160
2388,00;0,0160
2387,00;0,0160
2386,00;0,0160
2385,00;0,0160
2384,00;0,0160
2383,00;0,0160
2382,00;0,0160
2381,00;0,0160
2380,00;0,0160
2379,00;0,0160
2378,00;0,0160
2377,00;0,0160
2376,00;0,0159
2375,00;0,0159
2374,00;0,0159
2373,00;0,0160
2372,00;0,0160
2371,00;0,0160
2370,00;0,0159
2369,00;0,0159
2368,00;0,0159
2367,00;0,0159
2366,00;0,0159
2365,00;0,0159
2364,00;0,0159
2363,00;0,0159
2362,00;0,0159
2361,00;0,0159
2360,00;0,0159
2359,00;0,0160
2358,00;0,0160
2357,00;0,0160
2356,00;0,0160
2355,00;0,0160
2354,00;0,0160
2353,00;0,0160
2352,00;0,0160
2351,00;0,0160
2350,00;0,0160
2349,00;0,0160
2348,00;0,0160
2347,00;0,0161
2346,00;0,0161
2345,00;0,0161
2344,00;0,0161
2343,00;0,0161
2342,00;0,0161
2341,00;0,0162
2340,00;0,0162
2339,00;0,0162
2338,00;0,0161
2337,00;0,0161
2336,00;0,0161
2335,00;0,0161
2334,00;0,0161
2333,00;0,0162
2332,00;0,0162
2331,00;0,0162
2330,00;0,0162
2329,00;0,0162
2328,00;0,0162
2327,00;0,0164
2326,00;0,0166
2325,00;0,0167
2324,00;0,0168
2323,00;0,0168
2322,00;0,0167
2321,00;0,0166
2320,00;0,0165
2319,00;0,0165
2318,00;0,0164
2317,00;0,0164
2316,00;0,0163
2315,00;0,0163
2314,00;0,0163
2313,00;0,0163
2312,00;0,0163
2311,00;0,0163
2310,00;0,0163
2309,00;0,0162
2308,00;0,0162
2307,00;0,0162
2306,00;0,0162
2305,00;0,0162
2304,00;0,0162
2303,00;0,0162
2302,00;0,0162
2301,00;0,0162
2300,00;0,0162
2299,00;0,0162
2298,00;0,0162
2297,00;0,0162
2296,00;0,0162
2295,00;0,0163
2294,00;0,0163
2293,00;0,0163
2292,00;0,0163
2291,00;0,0164
2290,00;0,0164
2289,00;0,0164
2288,00;0,0164
2287,00;0,0164
2286,00;0,0164
2285,00;0,0164
2284,00;0,0164
2283,00;0,0163
2282,00;0,0162
2281,00;0,0161
2280,00;0,0160
2279,00;0,0159
2278,00;0,0158
2277,00;0,0158
2276,00;0,0157
2275,00;0,0157
2274,00;0,0157
2273,00;0,0156
2272,00;0,0156
2271,00;0,0156
2270,00;0,0156
2269,00;0,0155
2268,00;0,0154
2267,00;0,0153
2266,00;0,0153
2265,00;0,0152
2264,00;0,0152
2263,00;0,0152
2262,00;0,0152
2261,00;0,0152
2260,00;0,0152
2259,00;0,0152
2258,00;0,0152
2257,00;0,0152
2256,00;0,0151
2255,00;0,0150
2254,00;0,0149
2253,00;0,0149
2252,00;0,0149
2251,00;0,0148
2250,00;0,0148
2249,00;0,0148
2248,00;0,0148
2247,00;0,0147
2246,00;0,0147
2245,00;0,0147
2244,00;0,0146
2243,00;0,0146
2242,00;0,0146
2241,00;0,0146
2240,00;0,0146
2239,00;0,0145
2238,00;0,0145
2237,00;0,0145
2236,00;0,0145
2235,00;0,0144
2234,00;0,0144
2233,00;0,0144
2232,00;0,0143
2231,00;0,0143
2230,00;0,0143
2229,00;0,0143
2228,00;0,0143
2227,00;0,0142
2226,00;0,0142
2225,00;0,0142
2224,00;0,0142
2223,00;0,0142
2222,00;0,0141
2221,00;0,0141
2220,00;0,0141
2219,00;0,0141
2218,00;0,0140
2217,00;0,0140
2216,00;0,0140
2215,00;0,0140
2214,00;0,0140
2213,00;0,0140
2212,00;0,0139
2211,00;0,0139
2210,00;0,0139
2209,00;0,0139
2208,00;0,0139
2207,00;0,0138
2206,00;0,0138
2205,00;0,0138
2204,00;0,0138
2203,00;0,0139
2202,00;0,0139
2201,00;0,0138
2200,00;0,0138
2199,00;0,0137
2198,00;0,0137
2197,00;0,0137
2196,00;0,0137
2195,00;0,0137
2194,00;0,0137
2193,00;0,0137
2192,00;0,0137
2191,00;0,0137
2190,00;0,0137
2189,00;0,0137
2188,00;0,0137
2187,00;0,0137
2186,00;0,0136
2185,00;0,0135
2184,00;0,0134
2183,00;0,0132
2182,00;0,0131
2181,00;0,0131
2180,00;0,0131
2179,00;0,0132
2178,00;0,0132
2177,00;0,0132
2176,00;0,0131
2175,00;0,0130
2174,00;0,0130
2173,00;0,0130
2172,00;0,0130
2171,00;0,0131
2170,00;0,0133
2169,00;0,0134
2168,00;0,0134
2167,00;0,0135
2166,00;0,0135
2165,00;0,0135
2164,00;0,0134
2163,00;0,0134
2162,00;0,0134
2161,00;0,0131
2160,00;0,0125
2159,00;0,0118
2158,00;0,0111
2157,00;0,0108
2156,00;0,0108
2155,00;0,0110
2154,00;0,0112
2153,00;0,0113
2152,00;0,0115
2151,00;0,0116
2150,00;0,0116
2149,00;0,0116
2148,00;0,0116
2147,00;0,0116
2146,00;0,0115
2145,00;0,0115
2144,00;0,0115
2143,00;0,0116
2142,00;0,0116
2141,00;0,0116
2140,00;0,0116
2139,00;0,0117
2138,00;0,0117
2137,00;0,0117
2136,00;0,0116
2135,00;0,0116
2134,00;0,0115
2133,00;0,0115
2132,00;0,0115
2131,00;0,0116
2130,00;0,0117
2129,00;0,0118
2128,00;0,0119
2127,00;0,0120
2126,00;0,0120
2125,00;0,0120
2124,00;0,0121
2123,00;0,0122
2122,00;0,0123
2121,00;0,0124
2120,00;0,0124
2119,00;0,0125
2118,00;0,0125
2117,00;0,0127
2116,00;0,0129
2115,00;0,0131
2114,00;0,0131
2113,00;0,0131
2112,00;0,0131
2111,00;0,0131
2110,00;0,0130
2109,00;0,0130
2108,00;0,0130
2107,00;0,0129
2106,00;0,0128
2105,00;0,0128
2104,00;0,0127
2103,00;0,0127
2102,00;0,0126
2101,00;0,0126
2100,00;0,0126
2099,00;0,0126
2098,00;0,0126
2097,00;0,0125
2096,00;0,0124
2095,00;0,0122
2094,00;0,0122
2093,00;0,0122
2092,00;0,0122
2091,00;0,0123
2090,00;0,0124
2089,00;0,0124
2088,00;0,0125
2087,00;0,0125
2086,00;0,0124
2085,00;0,0124
2084,00;0,0124
2083,00;0,0124
2082,00;0,0124
2081,00;0,0124
2080,00;0,0124
2079,00;0,0123
2078,00;0,0123
2077,00;0,0123
2076,00;0,0123
2075,00;0,0123
2074,00;0,0123
2073,00;0,0122
2072,00;0,0122
2071,00;0,0121
2070,00;0,0121
2069,00;0,0121
2068,00;0,0121
2067,00;0,0121
2066,00;0,0121
2065,00;0,0120
2064,00;0,0120
2063,00;0,0120
2062,00;0,0120
2061,00;0,0120
2060,00;0,0120
2059,00;0,0119
2058,00;0,0119
2057,00;0,0119
2056,00;0,0119
2055,00;0,0119
2054,00;0,0119
2053,00;0,0119
2052,00;0,0120
2051,00;0,0120
2050,00;0,0120
2049,00;0,0119
2048,00;0,0118
2047,00;0,0117
2046,00;0,0117
2045,00;0,0116
2044,00;0,0115
2043,00;0,0115
2042,00;0,0115
2041,00;0,0115
2040,00;0,0115
2039,00;0,0115
2038,00;0,0115
2037,00;0,0114
2036,00;0,0114
2035,00;0,0113
2034,00;0,0112
2033,00;0,0112
2032,00;0,0112
2031,00;0,0112
2030,00;0,0111
2029,00;0,0111
2028,00;0,0110
2027,00;0,0110
2026,00;0,0110
2025,00;0,0110
2024,00;0,0110
2023,00;0,0109
2022,00;0,0108
2021,00;0,0107
2020,00;0,0106
2019,00;0,0105
2018,00;0,0105
2017,00;0,0106
2016,00;0,0106
2015,00;0,0107
2014,00;0,0107
2013,00;0,0107
2012,00;0,0107
2011,00;0,0107
2010,00;0,0106
2009,00;0,0105
2008,00;0,0104
2007,00;0,0103
2006,00;0,0102
2005,00;0,0101
2004,00;0,0101
2003,00;0,0102
2002,00;0,0103
2001,00;0,0104
2000,00;0,0105
1999,00;0,0106
1998,00;0,0107
1997,00;0,0107
1996,00;0,0107
1995,00;0,0106
1994,00;0,0106
1993,00;0,0105
1992,00;0,0105
1991,00;0,0105
1990,00;0,0104
1989,00;0,0105
1988,00;0,0105
1987,00;0,0105
1986,00;0,0105
1985,00;0,0106
1984,00;0,0108
1983,00;0,0109
1982,00;0,0110
1981,00;0,0110
1980,00;0,0108
1979,00;0,0105
1978,00;0,0101
1977,00;0,0098
1976,00;0,0097
1975,00;0,0096
1974,00;0,0097
1973,00;0,0097
1972,00;0,0097
1971,00;0,0096
1970,00;0,0096
1969,00;0,0096
1968,00;0,0096
1967,00;0,0096
1966,00;0,0096
1965,00;0,0096
1964,00;0,0095
1963,00;0,0094
1962,00;0,0094
1961,00;0,0093
1960,00;0,0092
1959,00;0,0091
1958,00;0,0089
1957,00;0,0089
1956,00;0,0089
1955,00;0,0090
1954,00;0,0090
1953,00;0,0091
1952,00;0,0092
1951,00;0,0092
1950,00;0,0092
1949,00;0,0091
1948,00;0,0091
1947,00;0,0091
1946,00;0,0091
1945,00;0,0092
1944,00;0,0092
1943,00;0,0092
1942,00;0,0091
1941,00;0,0091
1940,00;0,0091
1939,00;0,0091
1938,00;0,0092
1937,00;0,0093
1936,00;0,0093
1935,00;0,0093
1934,00;0,0093
1933,00;0,0093
1932,00;0,0092
1931,00;0,0092
1930,00;0,0091
1929,00;0,0091
1928,00;0,0092
1927,00;0,0092
1926,00;0,0092
1925,00;0,0092
1924,00;0,0093
1923,00;0,0093
1922,00;0,0093
1921,00;0,0094
1920,00;0,0094
1919,00;0,0094
1918,00;0,0093
1917,00;0,0093
1916,00;0,0093
1915,00;0,0093
1914,00;0,0093
1913,00;0,0093
1912,00;0,0093
1911,00;0,0093
1910,00;0,0093
1909,00;0,0093
1908,00;0,0093
1907,00;0,0093
1906,00;0,0093
1905,00;0,0093
1904,00;0,0093
1903,00;0,0093
1902,00;0,0093
1901,00;0,0093
1900,00;0,0093
1899,00;0,0093
1898,00;0,0093
1897,00;0,0093
1896,00;0,0092
1895,00;0,0092
1894,00;0,0092
1893,00;0,0092
1892,00;0,0092
1891,00;0,0092
1890,00;0,0092
1889,00;0,0092
1888,00;0,0092
1887,00;0,0092
1886,00;0,0092
1885,00;0,0092
1884,00;0,0092
1883,00;0,0092
1882,00;0,0092
1881,00;0,0092
1880,00;0,0092
1879,00;0,0091
1878,00;0,0091
1877,00;0,0091
1876,00;0,0091
1875,00;0,0091
1874,00;0,0091
1873,00;0,0091
1872,00;0,0091
1871,00;0,0091
1870,00;0,0091
1869,00;0,0090
1868,00;0,0090
1867,00;0,0090
1866,00;0,0090
1865,00;0,0090
1864,00;0,0090
1863,00;0,0090
1862,00;0,0090
1861,00;0,0090
1860,00;0,0090
1859,00;0,0089
1858,00;0,0089
1857,00;0,0089
1856,00;0,0089
1855,00;0,0089
1854,00;0,0089
1853,00;0,0089
1852,00;0,0089
1851,00;0,0089
1850,00;0,0088
1849,00;0,0088
1848,00;0,0088
1847,00;0,0088
1846,00;0,0088
1845,00;0,0088
1844,00;0,0088
1843,00;0,0088
1842,00;0,0088
1841,00;0,0088
1840,00;0,0087
1839,00;0,0087
1838,00;0,0087
1837,00;0,0087
1836,00;0,0087
1835,00;0,0087
1834,00;0,0087
1833,00;0,0087
1832,00;0,0087
1831,00;0,0087
1830,00;0,0087
1829,00;0,0087
1828,00;0,0087
1827,00;0,0087
1826,00;0,0087
1825,00;0,0087
1824,00;0,0087
1823,00;0,0086
1822,00;0,0086
1821,00;0,0086
1820,00;0,0086
1819,00;0,0085
1818,00;0,0084
1817,00;0,0084
1816,00;0,0084
1815,00;0,0084
1814,00;0,0084
1813,00;0,0084
1812,00;0,0085
1811,00;0,0085
1810,00;0,0085
1809,00;0,0085
1808,00;0,0085
1807,00;0,0085
1806,00;0,0085
1805,00;0,0085
1804,00;0,0085
1803,00;0,0085
1802,00;0,0085
1801,00;0,0085
1800,00;0,0085
1799,00;0,0085
1798,00;0,0084
1797,00;0,0084
1796,00;0,0085
1795,00;0,0085
1794,00;0,0084
1793,00;0,0085
1792,00;0,0085
1791,00;0,0084
1790,00;0,0084
1789,00;0,0084
1788,00;0,0084
1787,00;0,0084
1786,00;0,0084
1785,00;0,0085
1784,00;0,0085
1783,00;0,0085
1782,00;0,0084
1781,00;0,0084
1780,00;0,0084
1779,00;0,0084
1778,00;0,0084
1777,00;0,0084
1776,00;0,0084
1775,00;0,0084
1774,00;0,0084
1773,00;0,0084
1772,00;0,0084
1771,00;0,0084
1770,00;0,0084
1769,00;0,0084
1768,00;0,0084
1767,00;0,0084
1766,00;0,0084
1765,00;0,0084
1764,00;0,0085
1763,00;0,0085
1762,00;0,0084
1761,00;0,0084
1760,00;0,0084
1759,00;0,0084
1758,00;0,0084
1757,00;0,0084
1756,00;0,0085
1755,00;0,0085
1754,00;0,0085
1753,00;0,0085
1752,00;0,0085
1751,00;0,0085
1750,00;0,0085
1749,00;0,0085
1748,00;0,0085
1747,00;0,0085
1746,00;0,0084
1745,00;0,0084
1744,00;0,0084
1743,00;0,0084
1742,00;0,0084
1741,00;0,0084
1740,00;0,0084
1739,00;0,0084
1738,00;0,0084
1737,00;0,0085
1736,00;0,0085
1735,00;0,0085
1734,00;0,0085
1733,00;0,0086
1732,00;0,0086
1731,00;0,0087
1730,00;0,0087
1729,00;0,0087
1728,00;0,0087
1727,00;0,0087
1726,00;0,0087
1725,00;0,0087
1724,00;0,0087
1723,00;0,0087
1722,00;0,0088
1721,00;0,0088
1720,00;0,0089
1719,00;0,0089
1718,00;0,0088
1717,00;0,0088
1716,00;0,0088
1715,00;0,0088
1714,00;0,0089
1713,00;0,0089
1712,00;0,0089
1711,00;0,0089
1710,00;0,0090
1709,00;0,0090
1708,00;0,0091
1707,00;0,0091
1706,00;0,0092
1705,00;0,0092
1704,00;0,0092
1703,00;0,0092
1702,00;0,0093
1701,00;0,0093
1700,00;0,0093
1699,00;0,0094
1698,00;0,0094
1697,00;0,0095
1696,00;0,0095
1695,00;0,0096
1694,00;0,0097
1693,00;0,0099
1692,00;0,0101
1691,00;0,0102
1690,00;0,0104
1689,00;0,0106
1688,00;0,0107
1687,00;0,0108
1686,00;0,0109
1685,00;0,0110
1684,00;0,0113
1683,00;0,0115
1682,00;0,0117
1681,00;0,0120
1680,00;0,0123
1679,00;0,0125
1678,00;0,0128
1677,00;0,0132
1676,00;0,0136
1675,00;0,0140
1674,00;0,0144
1673,00;0,0149
1672,00;0,0155
1671,00;0,0161
1670,00;0,0168
1669,00;0,0176
1668,00;0,0186
1667,00;0,0196
1666,00;0,0208
1665,00;0,0223
1664,00;0,0242
1663,00;0,0265
1662,00;0,0291
1661,00;0,0318
1660,00;0,0347
1659,00;0,0378
1658,00;0,0410
1657,00;0,0442
1656,00;0,0474
1655,00;0,0509
1654,00;0,0557
1653,00;0,0619
1652,00;0,0675
1651,00;0,0717
1650,00;0,0751
1649,00;0,0787
1648,00;0,0831
1647,00;0,0884
1646,00;0,0936
1645,00;0,0985
1644,00;0,1029
1643,00;0,1072
1642,00;0,1115
1641,00;0,1160
1640,00;0,1204
1639,00;0,1246
1638,00;0,1288
1637,00;0,1334
1636,00;0,1387
1635,00;0,1440
1634,00;0,1485
1633,00;0,1522
1632,00;0,1558
1631,00;0,1592
1630,00;0,1625
1629,00;0,1657
1628,00;0,1686
1627,00;0,1710
1626,00;0,1730
1625,00;0,1747
1624,00;0,1763
1623,00;0,1776
1622,00;0,1787
1621,00;0,1797
1620,00;0,1808
1619,00;0,1818
1618,00;0,1830
1617,00;0,1843
1616,00;0,1858
1615,00;0,1871
1614,00;0,1883
1613,00;0,1896
1612,00;0,1911
1611,00;0,1926
1610,00;0,1940
1609,00;0,1954
1608,00;0,1968
1607,00;0,1982
1606,00;0,1994
1605,00;0,2005
1604,00;0,2017
1603,00;0,2029
1602,00;0,2041
1601,00;0,2054
1600,00;0,2068
1599,00;0,2082
1598,00;0,2096
1597,00;0,2111
1596,00;0,2126
1595,00;0,2140
1594,00;0,2151
1593,00;0,2161
1592,00;0,2171
1591,00;0,2179
1590,00;0,2185
1589,00;0,2192
1588,00;0,2199
1587,00;0,2206
1586,00;0,2213
1585,00;0,2221
1584,00;0,2230
1583,00;0,2239
1582,00;0,2247
1581,00;0,2256
1580,00;0,2266
1579,00;0,2275
1578,00;0,2283
1577,00;0,2291
1576,00;0,2298
1575,00;0,2304
1574,00;0,2308
1573,00;0,2312
1572,00;0,2317
1571,00;0,2320
1570,00;0,2321
1569,00;0,2318
1568,00;0,2316
1567,00;0,2314
1566,00;0,2310
1565,00;0,2305
1564,00;0,2299
1563,00;0,2294
1562,00;0,2289
1561,00;0,2283
1560,00;0,2273
1559,00;0,2255
1558,00;0,2233
1557,00;0,2217
1556,00;0,2205
1555,00;0,2194
1554,00;0,2179
1553,00;0,2163
1552,00;0,2148
1551,00;0,2133
1550,00;0,2117
1549,00;0,2099
1548,00;0,2083
1547,00;0,2070
1546,00;0,2056
1545,00;0,2039
1544,00;0,2022
1543,00;0,2004
1542,00;0,1986
1541,00;0,1963
1540,00;0,1937
1539,00;0,1911
1538,00;0,1890
1537,00;0,1872
1536,00;0,1857
1535,00;0,1840
1534,00;0,1817
1533,00;0,1792
1532,00;0,1769
1531,00;0,1748
1530,00;0,1729
1529,00;0,1708
1528,00;0,1685
1527,00;0,1660
1526,00;0,1632
1525,00;0,1603
1524,00;0,1573
1523,00;0,1540
1522,00;0,1501
1521,00;0,1458
1520,00;0,1420
1519,00;0,1388
1518,00;0,1356
1517,00;0,1322
1516,00;0,1288
1515,00;0,1259
1514,00;0,1233
1513,00;0,1210
1512,00;0,1189
1511,00;0,1170
1510,00;0,1154
1509,00;0,1137
1508,00;0,1118
1507,00;0,1092
1506,00;0,1063
1505,00;0,1036
1504,00;0,1013
1503,00;0,0991
1502,00;0,0969
1501,00;0,0945
1500,00;0,0922
1499,00;0,0900
1498,00;0,0877
1497,00;0,0855
1496,00;0,0833
1495,00;0,0814
1494,00;0,0798
1493,00;0,0782
1492,00;0,0767
1491,00;0,0751
1490,00;0,0734
1489,00;0,0717
1488,00;0,0700
1487,00;0,0685
1486,00;0,0669
1485,00;0,0655
1484,00;0,0641
1483,00;0,0628
1482,00;0,0615
1481,00;0,0601
1480,00;0,0589
1479,00;0,0578
1478,00;0,0567
1477,00;0,0556
1476,00;0,0545
1475,00;0,0535
1474,00;0,0524
1473,00;0,0512
1472,00;0,0500
1471,00;0,0490
1470,00;0,0481
1469,00;0,0472
1468,00;0,0464
1467,00;0,0456
1466,00;0,0447
1465,00;0,0438
1464,00;0,0429
1463,00;0,0421
1462,00;0,0415
1461,00;0,0408
1460,00;0,0402
1459,00;0,0396
1458,00;0,0389
1457,00;0,0380
1456,00;0,0371
1455,00;0,0365
1454,00;0,0359
1453,00;0,0353
1452,00;0,0347
1451,00;0,0342
1450,00;0,0336
1449,00;0,0330
1448,00;0,0324
1447,00;0,0318
1446,00;0,0313
1445,00;0,0307
1444,00;0,0302
1443,00;0,0297
1442,00;0,0292
1441,00;0,0287
1440,00;0,0283
1439,00;0,0279
1438,00;0,0275
1437,00;0,0269
1436,00;0,0264
1435,00;0,0260
1434,00;0,0256
1433,00;0,0252
1432,00;0,0249
1431,00;0,0246
1430,00;0,0243
1429,00;0,0239
1428,00;0,0236
1427,00;0,0235
1426,00;0,0234
1425,00;0,0233
1424,00;0,0233
1423,00;0,0234
1422,00;0,0237
1421,00;0,0242
1420,00;0,0251
1419,00;0,0268
1418,00;0,0292
1417,00;0,0324
1416,00;0,0366
1415,00;0,0415
1414,00;0,0466
1413,00;0,0510
1412,00;0,0542
1411,00;0,0557
1410,00;0,0561
1409,00;0,0563
1408,00;0,0572
1407,00;0,0588
1406,00;0,0607
1405,00;0,0626
1404,00;0,0643
1403,00;0,0659
1402,00;0,0674
1401,00;0,0690
1400,00;0,0709
1399,00;0,0734
1398,00;0,0763
1397,00;0,0797
1396,00;0,0835
1395,00;0,0879
1394,00;0,0924
1393,00;0,0970
1392,00;0,1019
1391,00;0,1078
1390,00;0,1153
1389,00;0,1254
1388,00;0,1381
1387,00;0,1521
1386,00;0,1654
1385,00;0,1769
1384,00;0,1866
1383,00;0,1943
1382,00;0,1998
1381,00;0,2034
1380,00;0,2058
1379,00;0,2077
1378,00;0,2098
1377,00;0,2127
1376,00;0,2165
1375,00;0,2209
1374,00;0,2254
1373,00;0,2301
1372,00;0,2353
1371,00;0,2413
1370,00;0,2487
1369,00;0,2579
1368,00;0,2688
1367,00;0,2808
1366,00;0,2931
1365,00;0,3052
1364,00;0,3169
1363,00;0,3269
1362,00;0,3341
1361,00;0,3385
1360,00;0,3407
1359,00;0,3413
1358,00;0,3407
1357,00;0,3394
1356,00;0,3374
1355,00;0,3343
1354,00;0,3298
1353,00;0,3240
1352,00;0,3174
1351,00;0,3102
1350,00;0,3029
1349,00;0,2962
1348,00;0,2904
1347,00;0,2852
1346,00;0,2803
1345,00;0,2754
1344,00;0,2703
1343,00;0,2645
1342,00;0,2581
1341,00;0,2509
1340,00;0,2430
1339,00;0,2346
1338,00;0,2261
1337,00;0,2178
1336,00;0,2099
1335,00;0,2022
1334,00;0,1948
1333,00;0,1878
1332,00;0,1812
1331,00;0,1749
1330,00;0,1690
1329,00;0,1635
1328,00;0,1583
1327,00;0,1534
1326,00;0,1488
1325,00;0,1444
1324,00;0,1403
1323,00;0,1363
1322,00;0,1326
1321,00;0,1291
1320,00;0,1258
1319,00;0,1226
1318,00;0,1196
1317,00;0,1168
1316,00;0,1142
1315,00;0,1117
1314,00;0,1093
1313,00;0,1069
1312,00;0,1047
1311,00;0,1025
1310,00;0,1005
1309,00;0,0985
1308,00;0,0967
1307,00;0,0949
1306,00;0,0932
1305,00;0,0915
1304,00;0,0901
1303,00;0,0887
1302,00;0,0874
1301,00;0,0863
1300,00;0,0852
1299,00;0,0842
1298,00;0,0830
1297,00;0,0819
1296,00;0,0806
1295,00;0,0793
1294,00;0,0779
1293,00;0,0765
1292,00;0,0751
1291,00;0,0737
1290,00;0,0723
1289,00;0,0709
1288,00;0,0696
1287,00;0,0683
1286,00;0,0670
1285,00;0,0658
1284,00;0,0646
1283,00;0,0633
1282,00;0,0622
1281,00;0,0610
1280,00;0,0599
1279,00;0,0589
1278,00;0,0579
1277,00;0,0570
1276,00;0,0561
1275,00;0,0553
1274,00;0,0544
1273,00;0,0536
1272,00;0,0528
1271,00;0,0520
1270,00;0,0512
1269,00;0,0505
1268,00;0,0498
1267,00;0,0491
1266,00;0,0484
1265,00;0,0478
1264,00;0,0472
1263,00;0,0466
1262,00;0,0461
1261,00;0,0455
1260,00;0,0449
1259,00;0,0444
1258,00;0,0439
1257,00;0,0435
1256,00;0,0431
1255,00;0,0426
1254,00;0,0422
1253,00;0,0418
1252,00;0,0414
1251,00;0,0410
1250,00;0,0406
1249,00;0,0402
1248,00;0,0398
1247,00;0,0395
1246,00;0,0392
1245,00;0,0389
1244,00;0,0385
1243,00;0,0382
1242,00;0,0379
1241,00;0,0375
1240,00;0,0372
1239,00;0,0369
1238,00;0,0367
1237,00;0,0364
1236,00;0,0361
1235,00;0,0358
1234,00;0,0354
1233,00;0,0352
1232,00;0,0349
1231,00;0,0347
1230,00;0,0344
1229,00;0,0342
1228,00;0,0339
1227,00;0,0337
1226,00;0,0335
1225,00;0,0333
1224,00;0,0331
1223,00;0,0330
1222,00;0,0328
1221,00;0,0326
1220,00;0,0324
1219,00;0,0322
1218,00;0,0320
1217,00;0,0318
1216,00;0,0316
1215,00;0,0315
1214,00;0,0313
1213,00;0,0312
1212,00;0,0310
1211,00;0,0308
1210,00;0,0307
1209,00;0,0305
1208,00;0,0304
1207,00;0,0303
1206,00;0,0301
1205,00;0,0300
1204,00;0,0298
1203,00;0,0297
1202,00;0,0296
1201,00;0,0294
1200,00;0,0293
1199,00;0,0293
1198,00;0,0292
1197,00;0,0290
1196,00;0,0289
1195,00;0,0288
1194,00;0,0287
1193,00;0,0286
1192,00;0,0285
1191,00;0,0284
1190,00;0,0282
1189,00;0,0281
1188,00;0,0280
1187,00;0,0279
1186,00;0,0278
1185,00;0,0277
1184,00;0,0276
1183,00;0,0275
1182,00;0,0274
1181,00;0,0272
1180,00;0,0271
1179,00;0,0270
1178,00;0,0269
1177,00;0,0268
1176,00;0,0267
1175,00;0,0266
1174,00;0,0265
1173,00;0,0264
1172,00;0,0263
1171,00;0,0262
1170,00;0,0261
1169,00;0,0260
1168,00;0,0259
1167,00;0,0258
1166,00;0,0257
1165,00;0,0256
1164,00;0,0255
1163,00;0,0254
1162,00;0,0253
1161,00;0,0252
1160,00;0,0251
1159,00;0,0250
1158,00;0,0249
1157,00;0,0247
1156,00;0,0246
1155,00;0,0245
1154,00;0,0244
1153,00;0,0243
1152,00;0,0241
1151,00;0,0240
1150,00;0,0239
1149,00;0,0238
1148,00;0,0237
1147,00;0,0236
1146,00;0,0235
1145,00;0,0235
1144,00;0,0234
1143,00;0,0233
1142,00;0,0232
1141,00;0,0232
1140,00;0,0231
1139,00;0,0231
1138,00;0,0230
1137,00;0,0230
1136,00;0,0229
1135,00;0,0228
1134,00;0,0226
1133,00;0,0225
1132,00;0,0224
1131,00;0,0224
1130,00;0,0223
1129,00;0,0222
1128,00;0,0222
1127,00;0,0221
1126,00;0,0220
1125,00;0,0218
1124,00;0,0217
1123,00;0,0216
1122,00;0,0215
1121,00;0,0214
1120,00;0,0212
1119,00;0,0211
1118,00;0,0209
1117,00;0,0207
1116,00;0,0205
1115,00;0,0204
1114,00;0,0202
1113,00;0,0200
1112,00;0,0199
1111,00;0,0197
1110,00;0,0195
1109,00;0,0193
1108,00;0,0191
1107,00;0,0189
1106,00;0,0188
1105,00;0,0186
1104,00;0,0184
1103,00;0,0183
1102,00;0,0181
1101,00;0,0180
1100,00;0,0178
1099,00;0,0177
1098,00;0,0176
1097,00;0,0174
1096,00;0,0173
1095,00;0,0171
1094,00;0,0169
1093,00;0,0168
1092,00;0,0166
1091,00;0,0164
1090,00;0,0163
1089,00;0,0161
1088,00;0,0159
1087,00;0,0158
1086,00;0,0156
1085,00;0,0154
1084,00;0,0153
1083,00;0,0151
1082,00;0,0150
1081,00;0,0149
1080,00;0,0149
1079,00;0,0148
1078,00;0,0147
1077,00;0,0146
1076,00;0,0146
1075,00;0,0146
1074,00;0,0146
1073,00;0,0146
1072,00;0,0147
1071,00;0,0148
1070,00;0,0149
1069,00;0,0150
1068,00;0,0149
1067,00;0,0149
1066,00;0,0149
1065,00;0,0150
1064,00;0,0151
1063,00;0,0151
1062,00;0,0152
1061,00;0,0152
1060,00;0,0152
1059,00;0,0152
1058,00;0,0153
1057,00;0,0154
1056,00;0,0154
1055,00;0,0153
1054,00;0,0151
1053,00;0,0148
1052,00;0,0145
1051,00;0,0142
1050,00;0,0138
1049,00;0,0134
1048,00;0,0131
1047,00;0,0129
1046,00;0,0126
1045,00;0,0125
1044,00;0,0123
1043,00;0,0122
1042,00;0,0121
1041,00;0,0120
1040,00;0,0119
1039,00;0,0118
1038,00;0,0117
1037,00;0,0116
1036,00;0,0115
1035,00;0,0115
1034,00;0,0114
1033,00;0,0114
1032,00;0,0113
1031,00;0,0112
1030,00;0,0111
1029,00;0,0110
1028,00;0,0109
1027,00;0,0108
1026,00;0,0108
1025,00;0,0107
1024,00;0,0107
1023,00;0,0106
1022,00;0,0105
1021,00;0,0104
1020,00;0,0104
1019,00;0,0103
1018,00;0,0102
1017,00;0,0101
1016,00;0,0101
1015,00;0,0100
1014,00;0,0100
1013,00;0,0100
1012,00;0,0100
1011,00;0,0099
1010,00;0,0099
1009,00;0,0098
1008,00;0,0098
1007,00;0,0098
1006,00;0,0097
1005,00;0,0097
1004,00;0,0097
1003,00;0,0097
1002,00;0,0097
1001,00;0,0097
1000,00;0,0096
999,00;0,0095
998,00;0,0095
997,00;0,0095
996,00;0,0095
995,00;0,0094
994,00;0,0094
993,00;0,0094
992,00;0,0094
991,00;0,0094
990,00;0,0094
989,00;0,0093
988,00;0,0093
987,00;0,0092
986,00;0,0091
985,00;0,0091
984,00;0,0090
983,00;0,0090
982,00;0,0089
981,00;0,0089
980,00;0,0089
979,00;0,0088
978,00;0,0088
977,00;0,0088
976,00;0,0088
975,00;0,0087
974,00;0,0087
973,00;0,0086
972,00;0,0086
971,00;0,0085
970,00;0,0085
969,00;0,0085
968,00;0,0085
967,00;0,0085
966,00;0,0085
965,00;0,0085
964,00;0,0085
963,00;0,0084
962,00;0,0084
961,00;0,0084
960,00;0,0084
959,00;0,0084
958,00;0,0084
957,00;0,0084
956,00;0,0084
955,00;0,0084
954,00;0,0084
953,00;0,0084
952,00;0,0084
951,00;0,0084
950,00;0,0083
949,00;0,0084
948,00;0,0084
947,00;0,0084
946,00;0,0084
945,00;0,0084
944,00;0,0084
943,00;0,0084
942,00;0,0084
941,00;0,0084
940,00;0,0084
939,00;0,0084
938,00;0,0084
937,00;0,0084
936,00;0,0084
935,00;0,0084
934,00;0,0084
933,00;0,0084
932,00;0,0084
931,00;0,0084
930,00;0,0084
929,00;0,0084
928,00;0,0084
927,00;0,0084
926,00;0,0084
925,00;0,0084
924,00;0,0084
923,00;0,0084
922,00;0,0084
921,00;0,0084
920,00;0,0084
919,00;0,0084
918,00;0,0084
917,00;0,0084
916,00;0,0084
915,00;0,0084
914,00;0,0084
913,00;0,0084
912,00;0,0084
911,00;0,0084
910,00;0,0084
909,00;0,0085
908,00;0,0085
907,00;0,0086
906,00;0,0086
905,00;0,0088
904,00;0,0089
903,00;0,0090
902,00;0,0091
901,00;0,0092
900,00;0,0092
899,00;0,0093
898,00;0,0095
897,00;0,0096
896,00;0,0097
895,00;0,0098
894,00;0,0099
893,00;0,0100
892,00;0,0102
891,00;0,0104
890,00;0,0106
889,00;0,0108
888,00;0,0110
887,00;0,0113
886,00;0,0115
885,00;0,0116
884,00;0,0119
883,00;0,0121
882,00;0,0123
881,00;0,0125
880,00;0,0127
879,00;0,0130
878,00;0,0132
877,00;0,0134
876,00;0,0137
875,00;0,0139
874,00;0,0141
873,00;0,0143
872,00;0,0145
871,00;0,0146
870,00;0,0147
869,00;0,0149
868,00;0,0150
867,00;0,0152
866,00;0,0154
865,00;0,0154
864,00;0,0154
863,00;0,0154
862,00;0,0154
861,00;0,0153
860,00;0,0153
859,00;0,0153
858,00;0,0152
857,00;0,0151
856,00;0,0151
855,00;0,0151
854,00;0,0150
853,00;0,0149
852,00;0,0148
851,00;0,0147
850,00;0,0146
849,00;0,0146
848,00;0,0145
847,00;0,0145
846,00;0,0144
845,00;0,0143
844,00;0,0143
843,00;0,0143
842,00;0,0143
841,00;0,0144
840,00;0,0143
839,00;0,0143
838,00;0,0143
837,00;0,0144
836,00;0,0145
835,00;0,0146
834,00;0,0148
833,00;0,0150
832,00;0,0152
831,00;0,0154
830,00;0,0156
829,00;0,0158
828,00;0,0160
827,00;0,0162
826,00;0,0164
825,00;0,0166
824,00;0,0169
823,00;0,0171
822,00;0,0173
821,00;0,0175
820,00;0,0177
819,00;0,0178
818,00;0,0180
817,00;0,0181
816,00;0,0182
815,00;0,0182
814,00;0,0182
813,00;0,0182
812,00;0,0182
811,00;0,0182
810,00;0,0181
809,00;0,0181
808,00;0,0181
807,00;0,0181
806,00;0,0182
805,00;0,0183
804,00;0,0184
803,00;0,0186
802,00;0,0188
801,00;0,0191
800,00;0,0195
799,00;0,0201
798,00;0,0208
797,00;0,0217
796,00;0,0228
795,00;0,0243
794,00;0,0263
793,00;0,0288
792,00;0,0318
791,00;0,0352
790,00;0,0383
789,00;0,0407
788,00;0,0418
787,00;0,0414
786,00;0,0397
785,00;0,0373
784,00;0,0346
783,00;0,0322
782,00;0,0300
781,00;0,0283
780,00;0,0269
779,00;0,0259
778,00;0,0254
777,00;0,0253
776,00;0,0259
775,00;0,0274
774,00;0,0299
773,00;0,0338
772,00;0,0387
771,00;0,0444
770,00;0,0504
769,00;0,0565
768,00;0,0631
767,00;0,0700
766,00;0,0772
765,00;0,0839
764,00;0,0902
763,00;0,0969
762,00;0,1049
761,00;0,1142
760,00;0,1225
759,00;0,1268
758,00;0,1250
757,00;0,1175
756,00;0,1070
755,00;0,0961
754,00;0,0868
753,00;0,0793
752,00;0,0731
751,00;0,0675
750,00;0,0621
749,00;0,0568
748,00;0,0518
747,00;0,0474
746,00;0,0435
745,00;0,0402
744,00;0,0375
743,00;0,0351
742,00;0,0330
741,00;0,0313
740,00;0,0298
739,00;0,0286
738,00;0,0274
737,00;0,0264
736,00;0,0253
735,00;0,0244
734,00;0,0235
733,00;0,0226
732,00;0,0218
731,00;0,0211
730,00;0,0204
729,00;0,0198
728,00;0,0193
727,00;0,0188
726,00;0,0183
725,00;0,0178
724,00;0,0173
723,00;0,0170
722,00;0,0167
721,00;0,0164
720,00;0,0161
719,00;0,0158
718,00;0,0155
717,00;0,0154
716,00;0,0152
715,00;0,0150
714,00;0,0147
713,00;0,0145
712,00;0,0144
711,00;0,0143
710,00;0,0142
709,00;0,0141
708,00;0,0140
707,00;0,0140
706,00;0,0139
705,00;0,0139
704,00;0,0139
703,00;0,0139
702,00;0,0139
701,00;0,0139
700,00;0,0139
699,00;0,0139
698,00;0,0138
697,00;0,0137
696,00;0,0137
695,00;0,0137
694,00;0,0136
693,00;0,0136
692,00;0,0137
691,00;0,0138
690,00;0,0139
689,00;0,0140
688,00;0,0141
687,00;0,0141
686,00;0,0141
685,00;0,0142
684,00;0,0144
683,00;0,0147
682,00;0,0149
681,00;0,0149
680,00;0,0149
679,00;0,0150
678,00;0,0150
677,00;0,0151
676,00;0,0152
675,00;0,0153
674,00;0,0154
673,00;0,0155
672,00;0,0157
671,00;0,0158
670,00;0,0158
669,00;0,0158
668,00;0,0159
667,00;0,0160
666,00;0,0161
665,00;0,0163
664,00;0,0167
663,00;0,0170
662,00;0,0172
661,00;0,0173
660,00;0,0174
659,00;0,0176
658,00;0,0178
657,00;0,0180
656,00;0,0183
655,00;0,0186
654,00;0,0190
653,00;0,0195
652,00;0,0200
651,00;0,0206
650,00;0,0212
649,00;0,0219
648,00;0,0228
647,00;0,0239
646,00;0,0250
645,00;0,0263
644,00;0,0277
643,00;0,0294
642,00;0,0314
641,00;0,0337
640,00;0,0360
639,00;0,0383
638,00;0,0407
637,00;0,0432
636,00;0,0458
635,00;0,0484
634,00;0,0508
633,00;0,0530
632,00;0,0550
631,00;0,0569
630,00;0,0585
629,00;0,0602
628,00;0,0618
627,00;0,0632
626,00;0,0645
625,00;0,0657
624,00;0,0670
623,00;0,0683
622,00;0,0696
621,00;0,0710
620,00;0,0723
619,00;0,0736
618,00;0,0747
617,00;0,0757
616,00;0,0767
615,00;0,0774
614,00;0,0778
613,00;0,0780
612,00;0,0781
611,00;0,0781
610,00;0,0777
609,00;0,0773
608,00;0,0768
607,00;0,0764
606,00;0,0758
605,00;0,0752
604,00;0,0747
603,00;0,0743
602,00;0,0737
601,00;0,0732
600,00;0,0726
599,00;0,0720
598,00;0,0713
597,00;0,0706
596,00;0,0699
595,00;0,0690
594,00;0,0680
593,00;0,0670
592,00;0,0663
591,00;0,0658
590,00;0,0654
589,00;0,0650
588,00;0,0647
587,00;0,0644
586,00;0,0642
585,00;0,0644
584,00;0,0649
583,00;0,0658
582,00;0,0668
581,00;0,0678
580,00;0,0690
579,00;0,0703
578,00;0,0716
577,00;0,0731
576,00;0,0749
575,00;0,0768
574,00;0,0785
573,00;0,0799
572,00;0,0811
571,00;0,0823
570,00;0,0835
569,00;0,0851
568,00;0,0868
567,00;0,0883
566,00;0,0895
565,00;0,0907
564,00;0,0922
563,00;0,0938
562,00;0,0954
561,00;0,0970
560,00;0,0985
559,00;0,1000
558,00;0,1014
557,00;0,1027
556,00;0,1039
555,00;0,1048
554,00;0,1052
553,00;0,1054
552,00;0,1054
551,00;0,1048
550,00;0,1036
549,00;0,1018
548,00;0,0996
547,00;0,0967
546,00;0,0934
545,00;0,0899
544,00;0,0864
543,00;0,0827
542,00;0,0786
541,00;0,0742
540,00;0,0697
539,00;0,0654
538,00;0,0612
537,00;0,0573
536,00;0,0537
535,00;0,0503
534,00;0,0473
533,00;0,0445
532,00;0,0419
531,00;0,0394
530,00;0,0370
529,00;0,0349
528,00;0,0331
527,00;0,0314
526,00;0,0295
525,00;0,0278
524,00;0,0262
523,00;0,0249
522,00;0,0237
521,00;0,0226
520,00;0,0216
519,00;0,0203
518,00;0,0190
517,00;0,0177
516,00;0,0166
515,00;0,0157
514,00;0,0149
513,00;0,0143
512,00;0,0137
511,00;0,0131
510,00;0,0124
509,00;0,0119
508,00;0,0115
507,00;0,0110
506,00;0,0104
505,00;0,0099
504,00;0,0095
503,00;0,0092
502,00;0,0088
501,00;0,0085
500,00;0,0083
