Создан как новый массив данных;Образец 009 полученный BalashovM Дата среда, апреля 28 2021
cm-1;A
4000,00;0,0163
3999,00;0,0163
3998,00;0,0163
3997,00;0,0163
3996,00;0,0163
3995,00;0,0163
3994,00;0,0163
3993,00;0,0163
3992,00;0,0163
3991,00;0,0163
3990,00;0,0163
3989,00;0,0163
3988,00;0,0163
3987,00;0,0163
3986,00;0,0163
3985,00;0,0163
3984,00;0,0163
3983,00;0,0163
3982,00;0,0163
3981,00;0,0163
3980,00;0,0163
3979,00;0,0163
3978,00;0,0163
3977,00;0,0163
3976,00;0,0163
3975,00;0,0164
3974,00;0,0164
3973,00;0,0164
3972,00;0,0164
3971,00;0,0163
3970,00;0,0163
3969,00;0,0163
3968,00;0,0164
3967,00;0,0164
3966,00;0,0164
3965,00;0,0164
3964,00;0,0164
3963,00;0,0164
3962,00;0,0164
3961,00;0,0164
3960,00;0,0164
3959,00;0,0164
3958,00;0,0164
3957,00;0,0164
3956,00;0,0164
3955,00;0,0164
3954,00;0,0164
3953,00;0,0164
3952,00;0,0164
3951,00;0,0164
3950,00;0,0164
3949,00;0,0164
3948,00;0,0164
3947,00;0,0164
3946,00;0,0164
3945,00;0,0164
3944,00;0,0164
3943,00;0,0164
3942,00;0,0164
3941,00;0,0164
3940,00;0,0164
3939,00;0,0164
3938,00;0,0164
3937,00;0,0164
3936,00;0,0164
3935,00;0,0164
3934,00;0,0164
3933,00;0,0164
3932,00;0,0164
3931,00;0,0164
3930,00;0,0164
3929,00;0,0164
3928,00;0,0165
3927,00;0,0165
3926,00;0,0165
3925,00;0,0165
3924,00;0,0165
3923,00;0,0165
3922,00;0,0165
3921,00;0,0165
3920,00;0,0165
3919,00;0,0165
3918,00;0,0165
3917,00;0,0165
3916,00;0,0165
3915,00;0,0165
3914,00;0,0165
3913,00;0,0165
3912,00;0,0165
3911,00;0,0165
3910,00;0,0165
3909,00;0,0165
3908,00;0,0165
3907,00;0,0165
3906,00;0,0165
3905,00;0,0165
3904,00;0,0165
3903,00;0,0165
3902,00;0,0165
3901,00;0,0165
3900,00;0,0165
3899,00;0,0165
3898,00;0,0165
3897,00;0,0165
3896,00;0,0165
3895,00;0,0165
3894,00;0,0165
3893,00;0,0165
3892,00;0,0165
3891,00;0,0165
3890,00;0,0165
3889,00;0,0165
3888,00;0,0165
3887,00;0,0165
3886,00;0,0165
3885,00;0,0165
3884,00;0,0165
3883,00;0,0165
3882,00;0,0165
3881,00;0,0165
3880,00;0,0165
3879,00;0,0165
3878,00;0,0165
3877,00;0,0165
3876,00;0,0165
3875,00;0,0165
3874,00;0,0165
3873,00;0,0165
3872,00;0,0165
3871,00;0,0165
3870,00;0,0165
3869,00;0,0165
3868,00;0,0165
3867,00;0,0165
3866,00;0,0165
3865,00;0,0165
3864,00;0,0165
3863,00;0,0165
3862,00;0,0165
3861,00;0,0165
3860,00;0,0165
3859,00;0,0165
3858,00;0,0165
3857,00;0,0165
3856,00;0,0165
3855,00;0,0164
3854,00;0,0164
3853,00;0,0164
3852,00;0,0165
3851,00;0,0165
3850,00;0,0165
3849,00;0,0165
3848,00;0,0165
3847,00;0,0166
3846,00;0,0166
3845,00;0,0166
3844,00;0,0165
3843,00;0,0165
3842,00;0,0165
3841,00;0,0165
3840,00;0,0165
3839,00;0,0165
3838,00;0,0165
3837,00;0,0165
3836,00;0,0165
3835,00;0,0165
3834,00;0,0165
3833,00;0,0165
3832,00;0,0165
3831,00;0,0165
3830,00;0,0165
3829,00;0,0165
3828,00;0,0165
3827,00;0,0165
3826,00;0,0165
3825,00;0,0165
3824,00;0,0165
3823,00;0,0165
3822,00;0,0165
3821,00;0,0165
3820,00;0,0165
3819,00;0,0165
3818,00;0,0165
3817,00;0,0165
3816,00;0,0165
3815,00;0,0165
3814,00;0,0165
3813,00;0,0165
3812,00;0,0165
3811,00;0,0165
3810,00;0,0165
3809,00;0,0165
3808,00;0,0165
3807,00;0,0165
3806,00;0,0165
3805,00;0,0165
3804,00;0,0165
3803,00;0,0165
3802,00;0,0165
3801,00;0,0165
3800,00;0,0165
3799,00;0,0165
3798,00;0,0165
3797,00;0,0165
3796,00;0,0165
3795,00;0,0165
3794,00;0,0165
3793,00;0,0165
3792,00;0,0165
3791,00;0,0165
3790,00;0,0165
3789,00;0,0165
3788,00;0,0165
3787,00;0,0165
3786,00;0,0164
3785,00;0,0164
3784,00;0,0164
3783,00;0,0164
3782,00;0,0164
3781,00;0,0165
3780,00;0,0165
3779,00;0,0165
3778,00;0,0165
3777,00;0,0165
3776,00;0,0165
3775,00;0,0165
3774,00;0,0164
3773,00;0,0164
3772,00;0,0164
3771,00;0,0164
3770,00;0,0164
3769,00;0,0164
3768,00;0,0164
3767,00;0,0165
3766,00;0,0165
3765,00;0,0165
3764,00;0,0165
3763,00;0,0165
3762,00;0,0165
3761,00;0,0165
3760,00;0,0165
3759,00;0,0165
3758,00;0,0164
3757,00;0,0164
3756,00;0,0164
3755,00;0,0164
3754,00;0,0164
3753,00;0,0164
3752,00;0,0164
3751,00;0,0164
3750,00;0,0165
3749,00;0,0165
3748,00;0,0165
3747,00;0,0165
3746,00;0,0165
3745,00;0,0165
3744,00;0,0165
3743,00;0,0165
3742,00;0,0165
3741,00;0,0165
3740,00;0,0165
3739,00;0,0165
3738,00;0,0165
3737,00;0,0165
3736,00;0,0165
3735,00;0,0165
3734,00;0,0165
3733,00;0,0165
3732,00;0,0165
3731,00;0,0165
3730,00;0,0164
3729,00;0,0164
3728,00;0,0164
3727,00;0,0164
3726,00;0,0164
3725,00;0,0164
3724,00;0,0164
3723,00;0,0164
3722,00;0,0164
3721,00;0,0164
3720,00;0,0164
3719,00;0,0164
3718,00;0,0164
3717,00;0,0163
3716,00;0,0163
3715,00;0,0163
3714,00;0,0163
3713,00;0,0163
3712,00;0,0163
3711,00;0,0163
3710,00;0,0163
3709,00;0,0163
3708,00;0,0163
3707,00;0,0163
3706,00;0,0163
3705,00;0,0163
3704,00;0,0163
3703,00;0,0163
3702,00;0,0163
3701,00;0,0163
3700,00;0,0163
3699,00;0,0163
3698,00;0,0163
3697,00;0,0163
3696,00;0,0163
3695,00;0,0163
3694,00;0,0163
3693,00;0,0163
3692,00;0,0163
3691,00;0,0163
3690,00;0,0163
3689,00;0,0163
3688,00;0,0163
3687,00;0,0163
3686,00;0,0163
3685,00;0,0163
3684,00;0,0163
3683,00;0,0163
3682,00;0,0163
3681,00;0,0163
3680,00;0,0163
3679,00;0,0163
3678,00;0,0163
3677,00;0,0163
3676,00;0,0163
3675,00;0,0163
3674,00;0,0163
3673,00;0,0163
3672,00;0,0163
3671,00;0,0163
3670,00;0,0163
3669,00;0,0163
3668,00;0,0163
3667,00;0,0163
3666,00;0,0163
3665,00;0,0163
3664,00;0,0163
3663,00;0,0163
3662,00;0,0163
3661,00;0,0163
3660,00;0,0163
3659,00;0,0163
3658,00;0,0163
3657,00;0,0163
3656,00;0,0163
3655,00;0,0163
3654,00;0,0163
3653,00;0,0163
3652,00;0,0163
3651,00;0,0163
3650,00;0,0163
3649,00;0,0163
3648,00;0,0164
3647,00;0,0164
3646,00;0,0164
3645,00;0,0164
3644,00;0,0165
3643,00;0,0165
3642,00;0,0165
3641,00;0,0165
3640,00;0,0164
3639,00;0,0165
3638,00;0,0165
3637,00;0,0165
3636,00;0,0165
3635,00;0,0166
3634,00;0,0166
3633,00;0,0166
3632,00;0,0166
3631,00;0,0166
3630,00;0,0167
3629,00;0,0167
3628,00;0,0167
3627,00;0,0167
3626,00;0,0168
3625,00;0,0168
3624,00;0,0168
3623,00;0,0168
3622,00;0,0168
3621,00;0,0168
3620,00;0,0168
3619,00;0,0169
3618,00;0,0169
3617,00;0,0170
3616,00;0,0170
3615,00;0,0170
3614,00;0,0171
3613,00;0,0171
3612,00;0,0171
3611,00;0,0172
3610,00;0,0172
3609,00;0,0173
3608,00;0,0173
3607,00;0,0173
3606,00;0,0174
3605,00;0,0174
3604,00;0,0174
3603,00;0,0175
3602,00;0,0175
3601,00;0,0175
3600,00;0,0176
3599,00;0,0176
3598,00;0,0176
3597,00;0,0177
3596,00;0,0177
3595,00;0,0178
3594,00;0,0178
3593,00;0,0179
3592,00;0,0179
3591,00;0,0180
3590,00;0,0180
3589,00;0,0181
3588,00;0,0181
3587,00;0,0182
3586,00;0,0182
3585,00;0,0182
3584,00;0,0183
3583,00;0,0183
3582,00;0,0184
3581,00;0,0184
3580,00;0,0185
3579,00;0,0185
3578,00;0,0186
3577,00;0,0186
3576,00;0,0186
3575,00;0,0187
3574,00;0,0187
3573,00;0,0188
3572,00;0,0188
3571,00;0,0189
3570,00;0,0189
3569,00;0,0190
3568,00;0,0190
3567,00;0,0191
3566,00;0,0191
3565,00;0,0192
3564,00;0,0192
3563,00;0,0193
3562,00;0,0193
3561,00;0,0194
3560,00;0,0194
3559,00;0,0194
3558,00;0,0195
3557,00;0,0195
3556,00;0,0196
3555,00;0,0196
3554,00;0,0197
3553,00;0,0197
3552,00;0,0198
3551,00;0,0199
3550,00;0,0199
3549,00;0,0200
3548,00;0,0200
3547,00;0,0201
3546,00;0,0202
3545,00;0,0202
3544,00;0,0202
3543,00;0,0203
3542,00;0,0203
3541,00;0,0203
3540,00;0,0204
3539,00;0,0204
3538,00;0,0205
3537,00;0,0205
3536,00;0,0205
3535,00;0,0206
3534,00;0,0206
3533,00;0,0207
3532,00;0,0207
3531,00;0,0208
3530,00;0,0208
3529,00;0,0209
3528,00;0,0209
3527,00;0,0210
3526,00;0,0210
3525,00;0,0211
3524,00;0,0211
3523,00;0,0212
3522,00;0,0212
3521,00;0,0212
3520,00;0,0213
3519,00;0,0213
3518,00;0,0213
3517,00;0,0213
3516,00;0,0214
3515,00;0,0214
3514,00;0,0215
3513,00;0,0215
3512,00;0,0215
3511,00;0,0216
3510,00;0,0216
3509,00;0,0217
3508,00;0,0217
3507,00;0,0217
3506,00;0,0218
3505,00;0,0218
3504,00;0,0219
3503,00;0,0219
3502,00;0,0219
3501,00;0,0220
3500,00;0,0220
3499,00;0,0220
3498,00;0,0221
3497,00;0,0221
3496,00;0,0221
3495,00;0,0221
3494,00;0,0222
3493,00;0,0222
3492,00;0,0222
3491,00;0,0223
3490,00;0,0223
3489,00;0,0223
3488,00;0,0223
3487,00;0,0224
3486,00;0,0224
3485,00;0,0225
3484,00;0,0225
3483,00;0,0225
3482,00;0,0226
3481,00;0,0226
3480,00;0,0226
3479,00;0,0227
3478,00;0,0227
3477,00;0,0227
3476,00;0,0227
3475,00;0,0228
3474,00;0,0228
3473,00;0,0228
3472,00;0,0229
3471,00;0,0229
3470,00;0,0229
3469,00;0,0229
3468,00;0,0230
3467,00;0,0230
3466,00;0,0230
3465,00;0,0230
3464,00;0,0231
3463,00;0,0231
3462,00;0,0231
3461,00;0,0232
3460,00;0,0232
3459,00;0,0232
3458,00;0,0232
3457,00;0,0233
3456,00;0,0233
3455,00;0,0233
3454,00;0,0233
3453,00;0,0234
3452,00;0,0234
3451,00;0,0234
3450,00;0,0234
3449,00;0,0234
3448,00;0,0235
3447,00;0,0235
3446,00;0,0235
3445,00;0,0235
3444,00;0,0235
3443,00;0,0236
3442,00;0,0236
3441,00;0,0236
3440,00;0,0236
3439,00;0,0237
3438,00;0,0237
3437,00;0,0237
3436,00;0,0237
3435,00;0,0237
3434,00;0,0238
3433,00;0,0238
3432,00;0,0238
3431,00;0,0238
3430,00;0,0238
3429,00;0,0239
3428,00;0,0239
3427,00;0,0239
3426,00;0,0239
3425,00;0,0239
3424,00;0,0240
3423,00;0,0240
3422,00;0,0240
3421,00;0,0240
3420,00;0,0241
3419,00;0,0241
3418,00;0,0241
3417,00;0,0241
3416,00;0,0241
3415,00;0,0242
3414,00;0,0242
3413,00;0,0242
3412,00;0,0242
3411,00;0,0242
3410,00;0,0242
3409,00;0,0243
3408,00;0,0243
3407,00;0,0243
3406,00;0,0243
3405,00;0,0244
3404,00;0,0244
3403,00;0,0244
3402,00;0,0244
3401,00;0,0244
3400,00;0,0245
3399,00;0,0245
3398,00;0,0245
3397,00;0,0245
3396,00;0,0245
3395,00;0,0245
3394,00;0,0246
3393,00;0,0246
3392,00;0,0246
3391,00;0,0246
3390,00;0,0246
3389,00;0,0247
3388,00;0,0247
3387,00;0,0247
3386,00;0,0247
3385,00;0,0247
3384,00;0,0247
3383,00;0,0247
3382,00;0,0248
3381,00;0,0248
3380,00;0,0248
3379,00;0,0248
3378,00;0,0248
3377,00;0,0248
3376,00;0,0248
3375,00;0,0248
3374,00;0,0248
3373,00;0,0248
3372,00;0,0248
3371,00;0,0249
3370,00;0,0249
3369,00;0,0249
3368,00;0,0249
3367,00;0,0249
3366,00;0,0249
3365,00;0,0249
3364,00;0,0249
3363,00;0,0249
3362,00;0,0249
3361,00;0,0249
3360,00;0,0250
3359,00;0,0250
3358,00;0,0250
3357,00;0,0250
3356,00;0,0250
3355,00;0,0250
3354,00;0,0250
3353,00;0,0250
3352,00;0,0250
3351,00;0,0250
3350,00;0,0250
3349,00;0,0251
3348,00;0,0251
3347,00;0,0251
3346,00;0,0251
3345,00;0,0251
3344,00;0,0251
3343,00;0,0251
3342,00;0,0251
3341,00;0,0251
3340,00;0,0251
3339,00;0,0251
3338,00;0,0252
3337,00;0,0252
3336,00;0,0252
3335,00;0,0252
3334,00;0,0252
3333,00;0,0252
3332,00;0,0252
3331,00;0,0252
3330,00;0,0252
3329,00;0,0252
3328,00;0,0252
3327,00;0,0252
3326,00;0,0252
3325,00;0,0252
3324,00;0,0252
3323,00;0,0252
3322,00;0,0252
3321,00;0,0253
3320,00;0,0253
3319,00;0,0253
3318,00;0,0253
3317,00;0,0253
3316,00;0,0253
3315,00;0,0253
3314,00;0,0253
3313,00;0,0253
3312,00;0,0254
3311,00;0,0254
3310,00;0,0254
3309,00;0,0254
3308,00;0,0254
3307,00;0,0254
3306,00;0,0254
3305,00;0,0254
3304,00;0,0254
3303,00;0,0254
3302,00;0,0254
3301,00;0,0254
3300,00;0,0254
3299,00;0,0254
3298,00;0,0254
3297,00;0,0254
3296,00;0,0254
3295,00;0,0255
3294,00;0,0255
3293,00;0,0255
3292,00;0,0255
3291,00;0,0255
3290,00;0,0255
3289,00;0,0255
3288,00;0,0255
3287,00;0,0255
3286,00;0,0255
3285,00;0,0255
3284,00;0,0255
3283,00;0,0255
3282,00;0,0255
3281,00;0,0255
3280,00;0,0256
3279,00;0,0256
3278,00;0,0256
3277,00;0,0256
3276,00;0,0256
3275,00;0,0256
3274,00;0,0256
3273,00;0,0256
3272,00;0,0256
3271,00;0,0256
3270,00;0,0256
3269,00;0,0256
3268,00;0,0256
3267,00;0,0256
3266,00;0,0256
3265,00;0,0256
3264,00;0,0256
3263,00;0,0256
3262,00;0,0256
3261,00;0,0257
3260,00;0,0257
3259,00;0,0257
3258,00;0,0257
3257,00;0,0257
3256,00;0,0257
3255,00;0,0257
3254,00;0,0257
3253,00;0,0257
3252,00;0,0257
3251,00;0,0257
3250,00;0,0257
3249,00;0,0257
3248,00;0,0257
3247,00;0,0257
3246,00;0,0257
3245,00;0,0257
3244,00;0,0257
3243,00;0,0257
3242,00;0,0257
3241,00;0,0257
3240,00;0,0257
3239,00;0,0257
3238,00;0,0257
3237,00;0,0257
3236,00;0,0257
3235,00;0,0257
3234,00;0,0257
3233,00;0,0257
3232,00;0,0257
3231,00;0,0257
3230,00;0,0257
3229,00;0,0257
3228,00;0,0257
3227,00;0,0257
3226,00;0,0257
3225,00;0,0257
3224,00;0,0257
3223,00;0,0257
3222,00;0,0257
3221,00;0,0257
3220,00;0,0257
3219,00;0,0257
3218,00;0,0257
3217,00;0,0257
3216,00;0,0257
3215,00;0,0258
3214,00;0,0258
3213,00;0,0258
3212,00;0,0257
3211,00;0,0257
3210,00;0,0257
3209,00;0,0257
3208,00;0,0257
3207,00;0,0257
3206,00;0,0257
3205,00;0,0257
3204,00;0,0257
3203,00;0,0257
3202,00;0,0257
3201,00;0,0257
3200,00;0,0257
3199,00;0,0257
3198,00;0,0257
3197,00;0,0257
3196,00;0,0257
3195,00;0,0257
3194,00;0,0257
3193,00;0,0257
3192,00;0,0257
3191,00;0,0257
3190,00;0,0257
3189,00;0,0257
3188,00;0,0257
3187,00;0,0257
3186,00;0,0257
3185,00;0,0257
3184,00;0,0257
3183,00;0,0257
3182,00;0,0257
3181,00;0,0257
3180,00;0,0257
3179,00;0,0258
3178,00;0,0258
3177,00;0,0258
3176,00;0,0257
3175,00;0,0257
3174,00;0,0257
3173,00;0,0257
3172,00;0,0257
3171,00;0,0257
3170,00;0,0257
3169,00;0,0257
3168,00;0,0257
3167,00;0,0257
3166,00;0,0257
3165,00;0,0257
3164,00;0,0257
3163,00;0,0257
3162,00;0,0257
3161,00;0,0257
3160,00;0,0257
3159,00;0,0257
3158,00;0,0257
3157,00;0,0257
3156,00;0,0257
3155,00;0,0257
3154,00;0,0257
3153,00;0,0257
3152,00;0,0257
3151,00;0,0257
3150,00;0,0257
3149,00;0,0257
3148,00;0,0257
3147,00;0,0257
3146,00;0,0257
3145,00;0,0257
3144,00;0,0257
3143,00;0,0257
3142,00;0,0257
3141,00;0,0257
3140,00;0,0257
3139,00;0,0257
3138,00;0,0257
3137,00;0,0257
3136,00;0,0257
3135,00;0,0257
3134,00;0,0257
3133,00;0,0257
3132,00;0,0257
3131,00;0,0257
3130,00;0,0257
3129,00;0,0257
3128,00;0,0257
3127,00;0,0257
3126,00;0,0257
3125,00;0,0257
3124,00;0,0256
3123,00;0,0256
3122,00;0,0256
3121,00;0,0256
3120,00;0,0256
3119,00;0,0256
3118,00;0,0256
3117,00;0,0256
3116,00;0,0256
3115,00;0,0256
3114,00;0,0256
3113,00;0,0256
3112,00;0,0256
3111,00;0,0256
3110,00;0,0256
3109,00;0,0256
3108,00;0,0256
3107,00;0,0256
3106,00;0,0256
3105,00;0,0256
3104,00;0,0256
3103,00;0,0256
3102,00;0,0256
3101,00;0,0255
3100,00;0,0255
3099,00;0,0255
3098,00;0,0255
3097,00;0,0255
3096,00;0,0255
3095,00;0,0255
3094,00;0,0255
3093,00;0,0255
3092,00;0,0255
3091,00;0,0255
3090,00;0,0255
3089,00;0,0255
3088,00;0,0255
3087,00;0,0255
3086,00;0,0255
3085,00;0,0255
3084,00;0,0255
3083,00;0,0254
3082,00;0,0254
3081,00;0,0254
3080,00;0,0254
3079,00;0,0254
3078,00;0,0254
3077,00;0,0254
3076,00;0,0254
3075,00;0,0254
3074,00;0,0254
3073,00;0,0254
3072,00;0,0254
3071,00;0,0254
3070,00;0,0254
3069,00;0,0254
3068,00;0,0254
3067,00;0,0254
3066,00;0,0254
3065,00;0,0253
3064,00;0,0253
3063,00;0,0253
3062,00;0,0253
3061,00;0,0253
3060,00;0,0253
3059,00;0,0253
3058,00;0,0253
3057,00;0,0253
3056,00;0,0253
3055,00;0,0253
3054,00;0,0253
3053,00;0,0253
3052,00;0,0253
3051,00;0,0253
3050,00;0,0253
3049,00;0,0253
3048,00;0,0252
3047,00;0,0252
3046,00;0,0252
3045,00;0,0252
3044,00;0,0252
3043,00;0,0252
3042,00;0,0252
3041,00;0,0252
3040,00;0,0252
3039,00;0,0252
3038,00;0,0252
3037,00;0,0252
3036,00;0,0252
3035,00;0,0252
3034,00;0,0252
3033,00;0,0252
3032,00;0,0252
3031,00;0,0251
3030,00;0,0251
3029,00;0,0251
3028,00;0,0251
3027,00;0,0251
3026,00;0,0251
3025,00;0,0251
3024,00;0,0251
3023,00;0,0251
3022,00;0,0251
3021,00;0,0251
3020,00;0,0251
3019,00;0,0251
3018,00;0,0251
3017,00;0,0251
3016,00;0,0251
3015,00;0,0251
3014,00;0,0251
3013,00;0,0251
3012,00;0,0251
3011,00;0,0251
3010,00;0,0251
3009,00;0,0250
3008,00;0,0250
3007,00;0,0250
3006,00;0,0250
3005,00;0,0250
3004,00;0,0250
3003,00;0,0250
3002,00;0,0250
3001,00;0,0250
3000,00;0,0250
2999,00;0,0250
2998,00;0,0250
2997,00;0,0250
2996,00;0,0250
2995,00;0,0250
2994,00;0,0250
2993,00;0,0250
2992,00;0,0250
2991,00;0,0250
2990,00;0,0250
2989,00;0,0250
2988,00;0,0250
2987,00;0,0250
2986,00;0,0249
2985,00;0,0249
2984,00;0,0249
2983,00;0,0248
2982,00;0,0248
2981,00;0,0248
2980,00;0,0247
2979,00;0,0247
2978,00;0,0247
2977,00;0,0247
2976,00;0,0246
2975,00;0,0246
2974,00;0,0246
2973,00;0,0245
2972,00;0,0245
2971,00;0,0245
2970,00;0,0244
2969,00;0,0244
2968,00;0,0244
2967,00;0,0243
2966,00;0,0243
2965,00;0,0242
2964,00;0,0242
2963,00;0,0241
2962,00;0,0241
2961,00;0,0240
2960,00;0,0240
2959,00;0,0240
2958,00;0,0239
2957,00;0,0239
2956,00;0,0239
2955,00;0,0238
2954,00;0,0238
2953,00;0,0238
2952,00;0,0238
2951,00;0,0238
2950,00;0,0238
2949,00;0,0238
2948,00;0,0238
2947,00;0,0238
2946,00;0,0238
2945,00;0,0238
2944,00;0,0237
2943,00;0,0237
2942,00;0,0236
2941,00;0,0235
2940,00;0,0235
2939,00;0,0234
2938,00;0,0233
2937,00;0,0232
2936,00;0,0231
2935,00;0,0231
2934,00;0,0230
2933,00;0,0229
2932,00;0,0228
2931,00;0,0228
2930,00;0,0227
2929,00;0,0227
2928,00;0,0227
2927,00;0,0226
2926,00;0,0226
2925,00;0,0226
2924,00;0,0226
2923,00;0,0226
2922,00;0,0226
2921,00;0,0226
2920,00;0,0227
2919,00;0,0228
2918,00;0,0229
2917,00;0,0231
2916,00;0,0231
2915,00;0,0232
2914,00;0,0233
2913,00;0,0234
2912,00;0,0234
2911,00;0,0235
2910,00;0,0236
2909,00;0,0236
2908,00;0,0236
2907,00;0,0237
2906,00;0,0237
2905,00;0,0237
2904,00;0,0237
2903,00;0,0237
2902,00;0,0237
2901,00;0,0237
2900,00;0,0237
2899,00;0,0237
2898,00;0,0237
2897,00;0,0237
2896,00;0,0238
2895,00;0,0238
2894,00;0,0238
2893,00;0,0238
2892,00;0,0238
2891,00;0,0238
2890,00;0,0238
2889,00;0,0238
2888,00;0,0238
2887,00;0,0238
2886,00;0,0238
2885,00;0,0238
2884,00;0,0238
2883,00;0,0238
2882,00;0,0238
2881,00;0,0237
2880,00;0,0237
2879,00;0,0237
2878,00;0,0237
2877,00;0,0236
2876,00;0,0236
2875,00;0,0235
2874,00;0,0235
2873,00;0,0235
2872,00;0,0235
2871,00;0,0234
2870,00;0,0234
2869,00;0,0234
2868,00;0,0234
2867,00;0,0234
2866,00;0,0233
2865,00;0,0233
2864,00;0,0233
2863,00;0,0233
2862,00;0,0232
2861,00;0,0231
2860,00;0,0231
2859,00;0,0230
2858,00;0,0229
2857,00;0,0229
2856,00;0,0228
2855,00;0,0228
2854,00;0,0228
2853,00;0,0228
2852,00;0,0229
2851,00;0,0229
2850,00;0,0230
2849,00;0,0231
2848,00;0,0231
2847,00;0,0232
2846,00;0,0232
2845,00;0,0233
2844,00;0,0233
2843,00;0,0233
2842,00;0,0234
2841,00;0,0234
2840,00;0,0234
2839,00;0,0234
2838,00;0,0235
2837,00;0,0235
2836,00;0,0235
2835,00;0,0235
2834,00;0,0235
2833,00;0,0235
2832,00;0,0235
2831,00;0,0235
2830,00;0,0234
2829,00;0,0234
2828,00;0,0234
2827,00;0,0234
2826,00;0,0235
2825,00;0,0235
2824,00;0,0235
2823,00;0,0235
2822,00;0,0235
2821,00;0,0235
2820,00;0,0234
2819,00;0,0234
2818,00;0,0234
2817,00;0,0234
2816,00;0,0234
2815,00;0,0234
2814,00;0,0234
2813,00;0,0234
2812,00;0,0234
2811,00;0,0234
2810,00;0,0234
2809,00;0,0234
2808,00;0,0234
2807,00;0,0233
2806,00;0,0233
2805,00;0,0233
2804,00;0,0233
2803,00;0,0233
2802,00;0,0233
2801,00;0,0233
2800,00;0,0233
2799,00;0,0233
2798,00;0,0233
2797,00;0,0233
2796,00;0,0232
2795,00;0,0232
2794,00;0,0232
2793,00;0,0232
2792,00;0,0232
2791,00;0,0232
2790,00;0,0232
2789,00;0,0232
2788,00;0,0232
2787,00;0,0232
2786,00;0,0232
2785,00;0,0232
2784,00;0,0231
2783,00;0,0231
2782,00;0,0231
2781,00;0,0231
2780,00;0,0231
2779,00;0,0231
2778,00;0,0231
2777,00;0,0231
2776,00;0,0231
2775,00;0,0231
2774,00;0,0231
2773,00;0,0231
2772,00;0,0231
2771,00;0,0231
2770,00;0,0230
2769,00;0,0230
2768,00;0,0230
2767,00;0,0230
2766,00;0,0230
2765,00;0,0230
2764,00;0,0230
2763,00;0,0230
2762,00;0,0230
2761,00;0,0230
2760,00;0,0230
2759,00;0,0230
2758,00;0,0229
2757,00;0,0229
2756,00;0,0229
2755,00;0,0229
2754,00;0,0229
2753,00;0,0229
2752,00;0,0229
2751,00;0,0229
2750,00;0,0229
2749,00;0,0229
2748,00;0,0229
2747,00;0,0229
2746,00;0,0229
2745,00;0,0228
2744,00;0,0228
2743,00;0,0228
2742,00;0,0228
2741,00;0,0228
2740,00;0,0228
2739,00;0,0228
2738,00;0,0228
2737,00;0,0228
2736,00;0,0228
2735,00;0,0228
2734,00;0,0228
2733,00;0,0228
2732,00;0,0228
2731,00;0,0227
2730,00;0,0227
2729,00;0,0227
2728,00;0,0227
2727,00;0,0227
2726,00;0,0227
2725,00;0,0227
2724,00;0,0227
2723,00;0,0227
2722,00;0,0227
2721,00;0,0227
2720,00;0,0227
2719,00;0,0227
2718,00;0,0227
2717,00;0,0227
2716,00;0,0226
2715,00;0,0226
2714,00;0,0226
2713,00;0,0226
2712,00;0,0226
2711,00;0,0226
2710,00;0,0226
2709,00;0,0226
2708,00;0,0226
2707,00;0,0226
2706,00;0,0226
2705,00;0,0226
2704,00;0,0226
2703,00;0,0226
2702,00;0,0226
2701,00;0,0226
2700,00;0,0226
2699,00;0,0225
2698,00;0,0225
2697,00;0,0225
2696,00;0,0225
2695,00;0,0225
2694,00;0,0225
2693,00;0,0225
2692,00;0,0225
2691,00;0,0225
2690,00;0,0225
2689,00;0,0225
2688,00;0,0225
2687,00;0,0225
2686,00;0,0225
2685,00;0,0225
2684,00;0,0225
2683,00;0,0225
2682,00;0,0225
2681,00;0,0225
2680,00;0,0225
2679,00;0,0225
2678,00;0,0224
2677,00;0,0224
2676,00;0,0224
2675,00;0,0224
2674,00;0,0224
2673,00;0,0224
2672,00;0,0224
2671,00;0,0224
2670,00;0,0224
2669,00;0,0224
2668,00;0,0224
2667,00;0,0224
2666,00;0,0225
2665,00;0,0225
2664,00;0,0225
2663,00;0,0225
2662,00;0,0225
2661,00;0,0225
2660,00;0,0225
2659,00;0,0225
2658,00;0,0225
2657,00;0,0225
2656,00;0,0225
2655,00;0,0225
2654,00;0,0225
2653,00;0,0225
2652,00;0,0225
2651,00;0,0225
2650,00;0,0225
2649,00;0,0225
2648,00;0,0224
2647,00;0,0224
2646,00;0,0224
2645,00;0,0224
2644,00;0,0224
2643,00;0,0224
2642,00;0,0224
2641,00;0,0224
2640,00;0,0224
2639,00;0,0224
2638,00;0,0223
2637,00;0,0223
2636,00;0,0223
2635,00;0,0223
2634,00;0,0222
2633,00;0,0222
2632,00;0,0222
2631,00;0,0222
2630,00;0,0222
2629,00;0,0222
2628,00;0,0221
2627,00;0,0221
2626,00;0,0221
2625,00;0,0221
2624,00;0,0221
2623,00;0,0221
2622,00;0,0221
2621,00;0,0220
2620,00;0,0220
2619,00;0,0220
2618,00;0,0220
2617,00;0,0220
2616,00;0,0220
2615,00;0,0219
2614,00;0,0219
2613,00;0,0219
2612,00;0,0219
2611,00;0,0219
2610,00;0,0219
2609,00;0,0218
2608,00;0,0218
2607,00;0,0218
2606,00;0,0218
2605,00;0,0218
2604,00;0,0218
2603,00;0,0218
2602,00;0,0217
2601,00;0,0217
2600,00;0,0217
2599,00;0,0217
2598,00;0,0217
2597,00;0,0217
2596,00;0,0217
2595,00;0,0217
2594,00;0,0217
2593,00;0,0216
2592,00;0,0216
2591,00;0,0216
2590,00;0,0216
2589,00;0,0216
2588,00;0,0216
2587,00;0,0216
2586,00;0,0216
2585,00;0,0216
2584,00;0,0215
2583,00;0,0215
2582,00;0,0215
2581,00;0,0215
2580,00;0,0215
2579,00;0,0215
2578,00;0,0215
2577,00;0,0215
2576,00;0,0215
2575,00;0,0215
2574,00;0,0214
2573,00;0,0214
2572,00;0,0214
2571,00;0,0214
2570,00;0,0214
2569,00;0,0214
2568,00;0,0214
2567,00;0,0214
2566,00;0,0214
2565,00;0,0214
2564,00;0,0214
2563,00;0,0213
2562,00;0,0213
2561,00;0,0213
2560,00;0,0213
2559,00;0,0213
2558,00;0,0213
2557,00;0,0213
2556,00;0,0213
2555,00;0,0213
2554,00;0,0213
2553,00;0,0213
2552,00;0,0212
2551,00;0,0212
2550,00;0,0212
2549,00;0,0212
2548,00;0,0212
2547,00;0,0212
2546,00;0,0212
2545,00;0,0212
2544,00;0,0212
2543,00;0,0212
2542,00;0,0212
2541,00;0,0212
2540,00;0,0211
2539,00;0,0211
2538,00;0,0211
2537,00;0,0211
2536,00;0,0211
2535,00;0,0211
2534,00;0,0211
2533,00;0,0211
2532,00;0,0211
2531,00;0,0211
2530,00;0,0211
2529,00;0,0211
2528,00;0,0211
2527,00;0,0211
2526,00;0,0211
2525,00;0,0211
2524,00;0,0211
2523,00;0,0211
2522,00;0,0210
2521,00;0,0210
2520,00;0,0210
2519,00;0,0210
2518,00;0,0210
2517,00;0,0210
2516,00;0,0210
2515,00;0,0210
2514,00;0,0210
2513,00;0,0210
2512,00;0,0210
2511,00;0,0210
2510,00;0,0210
2509,00;0,0210
2508,00;0,0210
2507,00;0,0210
2506,00;0,0210
2505,00;0,0210
2504,00;0,0210
2503,00;0,0210
2502,00;0,0210
2501,00;0,0210
2500,00;0,0210
2499,00;0,0210
2498,00;0,0210
2497,00;0,0210
2496,00;0,0210
2495,00;0,0210
2494,00;0,0210
2493,00;0,0210
2492,00;0,0210
2491,00;0,0210
2490,00;0,0210
2489,00;0,0210
2488,00;0,0210
2487,00;0,0210
2486,00;0,0210
2485,00;0,0209
2484,00;0,0209
2483,00;0,0209
2482,00;0,0209
2481,00;0,0209
2480,00;0,0209
2479,00;0,0209
2478,00;0,0209
2477,00;0,0209
2476,00;0,0209
2475,00;0,0209
2474,00;0,0209
2473,00;0,0209
2472,00;0,0209
2471,00;0,0209
2470,00;0,0209
2469,00;0,0209
2468,00;0,0209
2467,00;0,0209
2466,00;0,0209
2465,00;0,0209
2464,00;0,0209
2463,00;0,0209
2462,00;0,0209
2461,00;0,0209
2460,00;0,0209
2459,00;0,0209
2458,00;0,0209
2457,00;0,0209
2456,00;0,0209
2455,00;0,0209
2454,00;0,0209
2453,00;0,0209
2452,00;0,0209
2451,00;0,0209
2450,00;0,0209
2449,00;0,0209
2448,00;0,0209
2447,00;0,0209
2446,00;0,0209
2445,00;0,0209
2444,00;0,0209
2443,00;0,0209
2442,00;0,0209
2441,00;0,0209
2440,00;0,0208
2439,00;0,0208
2438,00;0,0208
2437,00;0,0208
2436,00;0,0208
2435,00;0,0208
2434,00;0,0208
2433,00;0,0208
2432,00;0,0208
2431,00;0,0208
2430,00;0,0208
2429,00;0,0208
2428,00;0,0208
2427,00;0,0208
2426,00;0,0208
2425,00;0,0208
2424,00;0,0208
2423,00;0,0207
2422,00;0,0207
2421,00;0,0207
2420,00;0,0207
2419,00;0,0207
2418,00;0,0207
2417,00;0,0207
2416,00;0,0208
2415,00;0,0208
2414,00;0,0208
2413,00;0,0207
2412,00;0,0207
2411,00;0,0207
2410,00;0,0207
2409,00;0,0206
2408,00;0,0206
2407,00;0,0206
2406,00;0,0206
2405,00;0,0206
2404,00;0,0206
2403,00;0,0205
2402,00;0,0205
2401,00;0,0205
2400,00;0,0205
2399,00;0,0205
2398,00;0,0205
2397,00;0,0205
2396,00;0,0205
2395,00;0,0205
2394,00;0,0205
2393,00;0,0205
2392,00;0,0206
2391,00;0,0206
2390,00;0,0206
2389,00;0,0206
2388,00;0,0206
2387,00;0,0207
2386,00;0,0208
2385,00;0,0209
2384,00;0,0210
2383,00;0,0211
2382,00;0,0212
2381,00;0,0213
2380,00;0,0213
2379,00;0,0214
2378,00;0,0214
2377,00;0,0214
2376,00;0,0215
2375,00;0,0215
2374,00;0,0215
2373,00;0,0216
2372,00;0,0217
2371,00;0,0217
2370,00;0,0218
2369,00;0,0218
2368,00;0,0218
2367,00;0,0218
2366,00;0,0218
2365,00;0,0219
2364,00;0,0220
2363,00;0,0221
2362,00;0,0222
2361,00;0,0222
2360,00;0,0223
2359,00;0,0224
2358,00;0,0225
2357,00;0,0225
2356,00;0,0226
2355,00;0,0226
2354,00;0,0226
2353,00;0,0227
2352,00;0,0227
2351,00;0,0228
2350,00;0,0228
2349,00;0,0229
2348,00;0,0229
2347,00;0,0230
2346,00;0,0230
2345,00;0,0231
2344,00;0,0231
2343,00;0,0233
2342,00;0,0234
2341,00;0,0234
2340,00;0,0235
2339,00;0,0235
2338,00;0,0235
2337,00;0,0235
2336,00;0,0235
2335,00;0,0235
2334,00;0,0235
2333,00;0,0235
2332,00;0,0234
2331,00;0,0234
2330,00;0,0233
2329,00;0,0234
2328,00;0,0235
2327,00;0,0237
2326,00;0,0238
2325,00;0,0239
2324,00;0,0240
2323,00;0,0239
2322,00;0,0238
2321,00;0,0236
2320,00;0,0235
2319,00;0,0234
2318,00;0,0233
2317,00;0,0232
2316,00;0,0231
2315,00;0,0231
2314,00;0,0230
2313,00;0,0230
2312,00;0,0229
2311,00;0,0229
2310,00;0,0229
2309,00;0,0228
2308,00;0,0228
2307,00;0,0227
2306,00;0,0225
2305,00;0,0225
2304,00;0,0224
2303,00;0,0223
2302,00;0,0223
2301,00;0,0222
2300,00;0,0222
2299,00;0,0221
2298,00;0,0221
2297,00;0,0220
2296,00;0,0220
2295,00;0,0220
2294,00;0,0220
2293,00;0,0219
2292,00;0,0219
2291,00;0,0219
2290,00;0,0219
2289,00;0,0219
2288,00;0,0218
2287,00;0,0218
2286,00;0,0217
2285,00;0,0216
2284,00;0,0216
2283,00;0,0215
2282,00;0,0214
2281,00;0,0214
2280,00;0,0213
2279,00;0,0213
2278,00;0,0212
2277,00;0,0212
2276,00;0,0212
2275,00;0,0212
2274,00;0,0211
2273,00;0,0211
2272,00;0,0211
2271,00;0,0211
2270,00;0,0210
2269,00;0,0210
2268,00;0,0210
2267,00;0,0209
2266,00;0,0209
2265,00;0,0209
2264,00;0,0208
2263,00;0,0208
2262,00;0,0208
2261,00;0,0207
2260,00;0,0207
2259,00;0,0207
2258,00;0,0207
2257,00;0,0207
2256,00;0,0207
2255,00;0,0206
2254,00;0,0206
2253,00;0,0206
2252,00;0,0205
2251,00;0,0205
2250,00;0,0205
2249,00;0,0205
2248,00;0,0205
2247,00;0,0205
2246,00;0,0205
2245,00;0,0205
2244,00;0,0204
2243,00;0,0204
2242,00;0,0204
2241,00;0,0204
2240,00;0,0204
2239,00;0,0204
2238,00;0,0204
2237,00;0,0204
2236,00;0,0203
2235,00;0,0203
2234,00;0,0203
2233,00;0,0203
2232,00;0,0203
2231,00;0,0203
2230,00;0,0203
2229,00;0,0203
2228,00;0,0203
2227,00;0,0203
2226,00;0,0203
2225,00;0,0202
2224,00;0,0202
2223,00;0,0202
2222,00;0,0202
2221,00;0,0202
2220,00;0,0202
2219,00;0,0202
2218,00;0,0202
2217,00;0,0202
2216,00;0,0202
2215,00;0,0202
2214,00;0,0202
2213,00;0,0202
2212,00;0,0202
2211,00;0,0201
2210,00;0,0201
2209,00;0,0201
2208,00;0,0201
2207,00;0,0201
2206,00;0,0201
2205,00;0,0201
2204,00;0,0202
2203,00;0,0201
2202,00;0,0201
2201,00;0,0200
2200,00;0,0200
2199,00;0,0199
2198,00;0,0199
2197,00;0,0199
2196,00;0,0200
2195,00;0,0200
2194,00;0,0200
2193,00;0,0199
2192,00;0,0199
2191,00;0,0199
2190,00;0,0199
2189,00;0,0199
2188,00;0,0198
2187,00;0,0198
2186,00;0,0198
2185,00;0,0198
2184,00;0,0198
2183,00;0,0197
2182,00;0,0196
2181,00;0,0195
2180,00;0,0195
2179,00;0,0195
2178,00;0,0196
2177,00;0,0195
2176,00;0,0194
2175,00;0,0193
2174,00;0,0193
2173,00;0,0192
2172,00;0,0193
2171,00;0,0193
2170,00;0,0194
2169,00;0,0195
2168,00;0,0196
2167,00;0,0196
2166,00;0,0196
2165,00;0,0196
2164,00;0,0196
2163,00;0,0195
2162,00;0,0195
2161,00;0,0194
2160,00;0,0191
2159,00;0,0187
2158,00;0,0183
2157,00;0,0180
2156,00;0,0179
2155,00;0,0180
2154,00;0,0181
2153,00;0,0182
2152,00;0,0183
2151,00;0,0184
2150,00;0,0185
2149,00;0,0185
2148,00;0,0185
2147,00;0,0183
2146,00;0,0182
2145,00;0,0182
2144,00;0,0182
2143,00;0,0183
2142,00;0,0184
2141,00;0,0184
2140,00;0,0184
2139,00;0,0184
2138,00;0,0184
2137,00;0,0184
2136,00;0,0184
2135,00;0,0184
2134,00;0,0184
2133,00;0,0184
2132,00;0,0184
2131,00;0,0185
2130,00;0,0185
2129,00;0,0186
2128,00;0,0186
2127,00;0,0186
2126,00;0,0187
2125,00;0,0187
2124,00;0,0187
2123,00;0,0188
2122,00;0,0188
2121,00;0,0189
2120,00;0,0190
2119,00;0,0190
2118,00;0,0191
2117,00;0,0191
2116,00;0,0191
2115,00;0,0191
2114,00;0,0192
2113,00;0,0192
2112,00;0,0192
2111,00;0,0192
2110,00;0,0192
2109,00;0,0192
2108,00;0,0191
2107,00;0,0191
2106,00;0,0191
2105,00;0,0191
2104,00;0,0191
2103,00;0,0191
2102,00;0,0191
2101,00;0,0191
2100,00;0,0191
2099,00;0,0191
2098,00;0,0191
2097,00;0,0191
2096,00;0,0190
2095,00;0,0190
2094,00;0,0190
2093,00;0,0190
2092,00;0,0191
2091,00;0,0192
2090,00;0,0193
2089,00;0,0193
2088,00;0,0193
2087,00;0,0193
2086,00;0,0192
2085,00;0,0192
2084,00;0,0193
2083,00;0,0192
2082,00;0,0192
2081,00;0,0192
2080,00;0,0192
2079,00;0,0193
2078,00;0,0193
2077,00;0,0193
2076,00;0,0192
2075,00;0,0192
2074,00;0,0192
2073,00;0,0192
2072,00;0,0192
2071,00;0,0191
2070,00;0,0191
2069,00;0,0191
2068,00;0,0191
2067,00;0,0191
2066,00;0,0191
2065,00;0,0191
2064,00;0,0191
2063,00;0,0191
2062,00;0,0191
2061,00;0,0190
2060,00;0,0190
2059,00;0,0190
2058,00;0,0190
2057,00;0,0190
2056,00;0,0190
2055,00;0,0190
2054,00;0,0190
2053,00;0,0190
2052,00;0,0191
2051,00;0,0191
2050,00;0,0191
2049,00;0,0190
2048,00;0,0189
2047,00;0,0188
2046,00;0,0188
2045,00;0,0187
2044,00;0,0187
2043,00;0,0187
2042,00;0,0187
2041,00;0,0187
2040,00;0,0186
2039,00;0,0186
2038,00;0,0186
2037,00;0,0186
2036,00;0,0185
2035,00;0,0185
2034,00;0,0185
2033,00;0,0185
2032,00;0,0184
2031,00;0,0184
2030,00;0,0183
2029,00;0,0183
2028,00;0,0182
2027,00;0,0182
2026,00;0,0182
2025,00;0,0182
2024,00;0,0182
2023,00;0,0181
2022,00;0,0181
2021,00;0,0181
2020,00;0,0181
2019,00;0,0181
2018,00;0,0181
2017,00;0,0181
2016,00;0,0181
2015,00;0,0181
2014,00;0,0181
2013,00;0,0181
2012,00;0,0180
2011,00;0,0180
2010,00;0,0180
2009,00;0,0180
2008,00;0,0181
2007,00;0,0180
2006,00;0,0179
2005,00;0,0178
2004,00;0,0178
2003,00;0,0178
2002,00;0,0179
2001,00;0,0180
2000,00;0,0180
1999,00;0,0181
1998,00;0,0181
1997,00;0,0181
1996,00;0,0180
1995,00;0,0181
1994,00;0,0181
1993,00;0,0182
1992,00;0,0182
1991,00;0,0181
1990,00;0,0181
1989,00;0,0181
1988,00;0,0181
1987,00;0,0182
1986,00;0,0182
1985,00;0,0182
1984,00;0,0182
1983,00;0,0183
1982,00;0,0184
1981,00;0,0184
1980,00;0,0184
1979,00;0,0183
1978,00;0,0180
1977,00;0,0178
1976,00;0,0177
1975,00;0,0176
1974,00;0,0176
1973,00;0,0176
1972,00;0,0176
1971,00;0,0176
1970,00;0,0176
1969,00;0,0176
1968,00;0,0176
1967,00;0,0176
1966,00;0,0176
1965,00;0,0176
1964,00;0,0177
1963,00;0,0177
1962,00;0,0177
1961,00;0,0176
1960,00;0,0176
1959,00;0,0175
1958,00;0,0175
1957,00;0,0174
1956,00;0,0174
1955,00;0,0174
1954,00;0,0175
1953,00;0,0176
1952,00;0,0176
1951,00;0,0176
1950,00;0,0176
1949,00;0,0176
1948,00;0,0176
1947,00;0,0177
1946,00;0,0177
1945,00;0,0178
1944,00;0,0178
1943,00;0,0177
1942,00;0,0177
1941,00;0,0177
1940,00;0,0178
1939,00;0,0178
1938,00;0,0177
1937,00;0,0177
1936,00;0,0177
1935,00;0,0177
1934,00;0,0177
1933,00;0,0177
1932,00;0,0178
1931,00;0,0178
1930,00;0,0178
1929,00;0,0178
1928,00;0,0179
1927,00;0,0179
1926,00;0,0179
1925,00;0,0179
1924,00;0,0179
1923,00;0,0179
1922,00;0,0179
1921,00;0,0179
1920,00;0,0179
1919,00;0,0179
1918,00;0,0179
1917,00;0,0179
1916,00;0,0179
1915,00;0,0180
1914,00;0,0180
1913,00;0,0180
1912,00;0,0180
1911,00;0,0180
1910,00;0,0180
1909,00;0,0179
1908,00;0,0179
1907,00;0,0179
1906,00;0,0179
1905,00;0,0179
1904,00;0,0179
1903,00;0,0179
1902,00;0,0179
1901,00;0,0180
1900,00;0,0180
1899,00;0,0180
1898,00;0,0180
1897,00;0,0180
1896,00;0,0180
1895,00;0,0180
1894,00;0,0181
1893,00;0,0181
1892,00;0,0181
1891,00;0,0180
1890,00;0,0180
1889,00;0,0180
1888,00;0,0180
1887,00;0,0180
1886,00;0,0180
1885,00;0,0180
1884,00;0,0180
1883,00;0,0180
1882,00;0,0180
1881,00;0,0180
1880,00;0,0180
1879,00;0,0179
1878,00;0,0179
1877,00;0,0179
1876,00;0,0179
1875,00;0,0179
1874,00;0,0179
1873,00;0,0179
1872,00;0,0179
1871,00;0,0179
1870,00;0,0179
1869,00;0,0179
1868,00;0,0179
1867,00;0,0179
1866,00;0,0179
1865,00;0,0179
1864,00;0,0178
1863,00;0,0178
1862,00;0,0179
1861,00;0,0179
1860,00;0,0179
1859,00;0,0179
1858,00;0,0179
1857,00;0,0179
1856,00;0,0179
1855,00;0,0179
1854,00;0,0179
1853,00;0,0179
1852,00;0,0178
1851,00;0,0178
1850,00;0,0178
1849,00;0,0178
1848,00;0,0178
1847,00;0,0178
1846,00;0,0179
1845,00;0,0179
1844,00;0,0179
1843,00;0,0178
1842,00;0,0178
1841,00;0,0178
1840,00;0,0178
1839,00;0,0178
1838,00;0,0178
1837,00;0,0178
1836,00;0,0178
1835,00;0,0178
1834,00;0,0178
1833,00;0,0178
1832,00;0,0178
1831,00;0,0178
1830,00;0,0178
1829,00;0,0178
1828,00;0,0178
1827,00;0,0178
1826,00;0,0178
1825,00;0,0178
1824,00;0,0178
1823,00;0,0178
1822,00;0,0178
1821,00;0,0178
1820,00;0,0178
1819,00;0,0178
1818,00;0,0178
1817,00;0,0177
1816,00;0,0177
1815,00;0,0177
1814,00;0,0178
1813,00;0,0178
1812,00;0,0178
1811,00;0,0178
1810,00;0,0178
1809,00;0,0178
1808,00;0,0178
1807,00;0,0178
1806,00;0,0178
1805,00;0,0179
1804,00;0,0179
1803,00;0,0179
1802,00;0,0179
1801,00;0,0179
1800,00;0,0179
1799,00;0,0179
1798,00;0,0179
1797,00;0,0179
1796,00;0,0179
1795,00;0,0179
1794,00;0,0179
1793,00;0,0179
1792,00;0,0179
1791,00;0,0179
1790,00;0,0179
1789,00;0,0179
1788,00;0,0179
1787,00;0,0179
1786,00;0,0179
1785,00;0,0179
1784,00;0,0179
1783,00;0,0179
1782,00;0,0179
1781,00;0,0180
1780,00;0,0180
1779,00;0,0180
1778,00;0,0180
1777,00;0,0180
1776,00;0,0180
1775,00;0,0180
1774,00;0,0180
1773,00;0,0180
1772,00;0,0180
1771,00;0,0180
1770,00;0,0180
1769,00;0,0180
1768,00;0,0180
1767,00;0,0180
1766,00;0,0180
1765,00;0,0180
1764,00;0,0180
1763,00;0,0180
1762,00;0,0180
1761,00;0,0180
1760,00;0,0180
1759,00;0,0180
1758,00;0,0180
1757,00;0,0179
1756,00;0,0179
1755,00;0,0180
1754,00;0,0179
1753,00;0,0179
1752,00;0,0179
1751,00;0,0178
1750,00;0,0178
1749,00;0,0178
1748,00;0,0178
1747,00;0,0178
1746,00;0,0178
1745,00;0,0178
1744,00;0,0178
1743,00;0,0178
1742,00;0,0177
1741,00;0,0177
1740,00;0,0177
1739,00;0,0177
1738,00;0,0177
1737,00;0,0177
1736,00;0,0177
1735,00;0,0177
1734,00;0,0177
1733,00;0,0177
1732,00;0,0177
1731,00;0,0177
1730,00;0,0177
1729,00;0,0177
1728,00;0,0176
1727,00;0,0176
1726,00;0,0176
1725,00;0,0176
1724,00;0,0176
1723,00;0,0177
1722,00;0,0178
1721,00;0,0178
1720,00;0,0179
1719,00;0,0180
1718,00;0,0181
1717,00;0,0182
1716,00;0,0182
1715,00;0,0183
1714,00;0,0183
1713,00;0,0183
1712,00;0,0184
1711,00;0,0185
1710,00;0,0185
1709,00;0,0186
1708,00;0,0186
1707,00;0,0186
1706,00;0,0187
1705,00;0,0187
1704,00;0,0188
1703,00;0,0188
1702,00;0,0188
1701,00;0,0188
1700,00;0,0188
1699,00;0,0189
1698,00;0,0190
1697,00;0,0190
1696,00;0,0190
1695,00;0,0190
1694,00;0,0191
1693,00;0,0191
1692,00;0,0191
1691,00;0,0192
1690,00;0,0192
1689,00;0,0192
1688,00;0,0192
1687,00;0,0192
1686,00;0,0193
1685,00;0,0193
1684,00;0,0194
1683,00;0,0195
1682,00;0,0196
1681,00;0,0196
1680,00;0,0196
1679,00;0,0197
1678,00;0,0197
1677,00;0,0198
1676,00;0,0199
1675,00;0,0200
1674,00;0,0202
1673,00;0,0203
1672,00;0,0204
1671,00;0,0205
1670,00;0,0206
1669,00;0,0206
1668,00;0,0207
1667,00;0,0208
1666,00;0,0209
1665,00;0,0211
1664,00;0,0212
1663,00;0,0214
1662,00;0,0215
1661,00;0,0217
1660,00;0,0218
1659,00;0,0219
1658,00;0,0220
1657,00;0,0221
1656,00;0,0222
1655,00;0,0223
1654,00;0,0225
1653,00;0,0226
1652,00;0,0227
1651,00;0,0229
1650,00;0,0231
1649,00;0,0232
1648,00;0,0234
1647,00;0,0235
1646,00;0,0235
1645,00;0,0235
1644,00;0,0236
1643,00;0,0236
1642,00;0,0236
1641,00;0,0237
1640,00;0,0237
1639,00;0,0238
1638,00;0,0238
1637,00;0,0238
1636,00;0,0238
1635,00;0,0239
1634,00;0,0238
1633,00;0,0238
1632,00;0,0238
1631,00;0,0238
1630,00;0,0238
1629,00;0,0237
1628,00;0,0237
1627,00;0,0237
1626,00;0,0237
1625,00;0,0236
1624,00;0,0235
1623,00;0,0235
1622,00;0,0234
1621,00;0,0233
1620,00;0,0233
1619,00;0,0232
1618,00;0,0232
1617,00;0,0230
1616,00;0,0229
1615,00;0,0228
1614,00;0,0228
1613,00;0,0227
1612,00;0,0226
1611,00;0,0225
1610,00;0,0225
1609,00;0,0224
1608,00;0,0223
1607,00;0,0222
1606,00;0,0221
1605,00;0,0220
1604,00;0,0219
1603,00;0,0218
1602,00;0,0218
1601,00;0,0217
1600,00;0,0216
1599,00;0,0215
1598,00;0,0215
1597,00;0,0214
1596,00;0,0214
1595,00;0,0213
1594,00;0,0213
1593,00;0,0213
1592,00;0,0213
1591,00;0,0212
1590,00;0,0212
1589,00;0,0212
1588,00;0,0211
1587,00;0,0211
1586,00;0,0211
1585,00;0,0211
1584,00;0,0211
1583,00;0,0211
1582,00;0,0211
1581,00;0,0211
1580,00;0,0211
1579,00;0,0211
1578,00;0,0211
1577,00;0,0211
1576,00;0,0211
1575,00;0,0211
1574,00;0,0211
1573,00;0,0212
1572,00;0,0212
1571,00;0,0213
1570,00;0,0213
1569,00;0,0213
1568,00;0,0214
1567,00;0,0214
1566,00;0,0214
1565,00;0,0214
1564,00;0,0214
1563,00;0,0214
1562,00;0,0214
1561,00;0,0214
1560,00;0,0215
1559,00;0,0215
1558,00;0,0215
1557,00;0,0215
1556,00;0,0216
1555,00;0,0216
1554,00;0,0216
1553,00;0,0216
1552,00;0,0216
1551,00;0,0216
1550,00;0,0216
1549,00;0,0216
1548,00;0,0216
1547,00;0,0217
1546,00;0,0217
1545,00;0,0217
1544,00;0,0216
1543,00;0,0216
1542,00;0,0216
1541,00;0,0216
1540,00;0,0215
1539,00;0,0214
1538,00;0,0214
1537,00;0,0213
1536,00;0,0213
1535,00;0,0213
1534,00;0,0212
1533,00;0,0212
1532,00;0,0211
1531,00;0,0211
1530,00;0,0210
1529,00;0,0210
1528,00;0,0209
1527,00;0,0208
1526,00;0,0208
1525,00;0,0207
1524,00;0,0206
1523,00;0,0206
1522,00;0,0205
1521,00;0,0204
1520,00;0,0204
1519,00;0,0203
1518,00;0,0203
1517,00;0,0202
1516,00;0,0202
1515,00;0,0201
1514,00;0,0200
1513,00;0,0200
1512,00;0,0200
1511,00;0,0199
1510,00;0,0199
1509,00;0,0199
1508,00;0,0198
1507,00;0,0197
1506,00;0,0196
1505,00;0,0196
1504,00;0,0195
1503,00;0,0195
1502,00;0,0195
1501,00;0,0195
1500,00;0,0194
1499,00;0,0194
1498,00;0,0193
1497,00;0,0193
1496,00;0,0192
1495,00;0,0191
1494,00;0,0191
1493,00;0,0191
1492,00;0,0191
1491,00;0,0191
1490,00;0,0190
1489,00;0,0190
1488,00;0,0189
1487,00;0,0189
1486,00;0,0188
1485,00;0,0188
1484,00;0,0188
1483,00;0,0188
1482,00;0,0187
1481,00;0,0187
1480,00;0,0186
1479,00;0,0186
1478,00;0,0186
1477,00;0,0186
1476,00;0,0185
1475,00;0,0185
1474,00;0,0185
1473,00;0,0185
1472,00;0,0185
1471,00;0,0184
1470,00;0,0184
1469,00;0,0184
1468,00;0,0184
1467,00;0,0184
1466,00;0,0184
1465,00;0,0184
1464,00;0,0184
1463,00;0,0184
1462,00;0,0185
1461,00;0,0186
1460,00;0,0186
1459,00;0,0187
1458,00;0,0187
1457,00;0,0187
1456,00;0,0187
1455,00;0,0188
1454,00;0,0189
1453,00;0,0190
1452,00;0,0191
1451,00;0,0192
1450,00;0,0192
1449,00;0,0193
1448,00;0,0193
1447,00;0,0193
1446,00;0,0193
1445,00;0,0194
1444,00;0,0194
1443,00;0,0194
1442,00;0,0194
1441,00;0,0194
1440,00;0,0195
1439,00;0,0195
1438,00;0,0194
1437,00;0,0194
1436,00;0,0193
1435,00;0,0193
1434,00;0,0193
1433,00;0,0193
1432,00;0,0193
1431,00;0,0193
1430,00;0,0193
1429,00;0,0193
1428,00;0,0193
1427,00;0,0192
1426,00;0,0192
1425,00;0,0192
1424,00;0,0191
1423,00;0,0191
1422,00;0,0191
1421,00;0,0190
1420,00;0,0190
1419,00;0,0189
1418,00;0,0189
1417,00;0,0189
1416,00;0,0189
1415,00;0,0189
1414,00;0,0189
1413,00;0,0188
1412,00;0,0188
1411,00;0,0187
1410,00;0,0187
1409,00;0,0187
1408,00;0,0186
1407,00;0,0186
1406,00;0,0185
1405,00;0,0185
1404,00;0,0184
1403,00;0,0184
1402,00;0,0184
1401,00;0,0183
1400,00;0,0183
1399,00;0,0182
1398,00;0,0182
1397,00;0,0182
1396,00;0,0181
1395,00;0,0181
1394,00;0,0181
1393,00;0,0180
1392,00;0,0180
1391,00;0,0180
1390,00;0,0179
1389,00;0,0179
1388,00;0,0178
1387,00;0,0178
1386,00;0,0177
1385,00;0,0177
1384,00;0,0177
1383,00;0,0176
1382,00;0,0176
1381,00;0,0176
1380,00;0,0176
1379,00;0,0175
1378,00;0,0175
1377,00;0,0175
1376,00;0,0174
1375,00;0,0174
1374,00;0,0173
1373,00;0,0173
1372,00;0,0173
1371,00;0,0172
1370,00;0,0172
1369,00;0,0172
1368,00;0,0171
1367,00;0,0171
1366,00;0,0171
1365,00;0,0170
1364,00;0,0170
1363,00;0,0169
1362,00;0,0169
1361,00;0,0168
1360,00;0,0168
1359,00;0,0168
1358,00;0,0168
1357,00;0,0168
1356,00;0,0167
1355,00;0,0167
1354,00;0,0167
1353,00;0,0167
1352,00;0,0167
1351,00;0,0166
1350,00;0,0166
1349,00;0,0166
1348,00;0,0166
1347,00;0,0166
1346,00;0,0165
1345,00;0,0165
1344,00;0,0165
1343,00;0,0164
1342,00;0,0164
1341,00;0,0164
1340,00;0,0164
1339,00;0,0164
1338,00;0,0164
1337,00;0,0165
1336,00;0,0165
1335,00;0,0164
1334,00;0,0164
1333,00;0,0164
1332,00;0,0163
1331,00;0,0163
1330,00;0,0162
1329,00;0,0162
1328,00;0,0162
1327,00;0,0162
1326,00;0,0162
1325,00;0,0163
1324,00;0,0163
1323,00;0,0163
1322,00;0,0163
1321,00;0,0163
1320,00;0,0163
1319,00;0,0163
1318,00;0,0163
1317,00;0,0163
1316,00;0,0162
1315,00;0,0163
1314,00;0,0163
1313,00;0,0163
1312,00;0,0163
1311,00;0,0163
1310,00;0,0163
1309,00;0,0163
1308,00;0,0163
1307,00;0,0163
1306,00;0,0163
1305,00;0,0163
1304,00;0,0163
1303,00;0,0163
1302,00;0,0163
1301,00;0,0163
1300,00;0,0164
1299,00;0,0164
1298,00;0,0164
1297,00;0,0165
1296,00;0,0165
1295,00;0,0166
1294,00;0,0167
1293,00;0,0168
1292,00;0,0169
1291,00;0,0170
1290,00;0,0171
1289,00;0,0172
1288,00;0,0173
1287,00;0,0175
1286,00;0,0176
1285,00;0,0177
1284,00;0,0178
1283,00;0,0179
1282,00;0,0181
1281,00;0,0183
1280,00;0,0185
1279,00;0,0187
1278,00;0,0189
1277,00;0,0191
1276,00;0,0193
1275,00;0,0195
1274,00;0,0197
1273,00;0,0199
1272,00;0,0201
1271,00;0,0202
1270,00;0,0204
1269,00;0,0205
1268,00;0,0206
1267,00;0,0207
1266,00;0,0209
1265,00;0,0210
1264,00;0,0213
1263,00;0,0216
1262,00;0,0219
1261,00;0,0223
1260,00;0,0227
1259,00;0,0231
1258,00;0,0235
1257,00;0,0240
1256,00;0,0245
1255,00;0,0250
1254,00;0,0256
1253,00;0,0262
1252,00;0,0268
1251,00;0,0275
1250,00;0,0283
1249,00;0,0290
1248,00;0,0298
1247,00;0,0306
1246,00;0,0315
1245,00;0,0323
1244,00;0,0331
1243,00;0,0340
1242,00;0,0348
1241,00;0,0356
1240,00;0,0364
1239,00;0,0371
1238,00;0,0379
1237,00;0,0386
1236,00;0,0393
1235,00;0,0399
1234,00;0,0406
1233,00;0,0413
1232,00;0,0419
1231,00;0,0426
1230,00;0,0434
1229,00;0,0441
1228,00;0,0448
1227,00;0,0455
1226,00;0,0462
1225,00;0,0469
1224,00;0,0477
1223,00;0,0484
1222,00;0,0490
1221,00;0,0497
1220,00;0,0503
1219,00;0,0509
1218,00;0,0515
1217,00;0,0522
1216,00;0,0529
1215,00;0,0536
1214,00;0,0543
1213,00;0,0549
1212,00;0,0556
1211,00;0,0562
1210,00;0,0569
1209,00;0,0575
1208,00;0,0581
1207,00;0,0587
1206,00;0,0593
1205,00;0,0599
1204,00;0,0604
1203,00;0,0610
1202,00;0,0616
1201,00;0,0621
1200,00;0,0627
1199,00;0,0632
1198,00;0,0638
1197,00;0,0643
1196,00;0,0648
1195,00;0,0653
1194,00;0,0658
1193,00;0,0662
1192,00;0,0667
1191,00;0,0671
1190,00;0,0676
1189,00;0,0680
1188,00;0,0685
1187,00;0,0689
1186,00;0,0693
1185,00;0,0697
1184,00;0,0701
1183,00;0,0705
1182,00;0,0710
1181,00;0,0714
1180,00;0,0719
1179,00;0,0723
1178,00;0,0727
1177,00;0,0731
1176,00;0,0734
1175,00;0,0738
1174,00;0,0740
1173,00;0,0743
1172,00;0,0746
1171,00;0,0749
1170,00;0,0753
1169,00;0,0757
1168,00;0,0762
1167,00;0,0766
1166,00;0,0771
1165,00;0,0777
1164,00;0,0783
1163,00;0,0789
1162,00;0,0795
1161,00;0,0801
1160,00;0,0808
1159,00;0,0814
1158,00;0,0820
1157,00;0,0827
1156,00;0,0833
1155,00;0,0840
1154,00;0,0847
1153,00;0,0853
1152,00;0,0860
1151,00;0,0866
1150,00;0,0873
1149,00;0,0880
1148,00;0,0887
1147,00;0,0893
1146,00;0,0900
1145,00;0,0906
1144,00;0,0913
1143,00;0,0919
1142,00;0,0924
1141,00;0,0930
1140,00;0,0936
1139,00;0,0941
1138,00;0,0945
1137,00;0,0949
1136,00;0,0952
1135,00;0,0955
1134,00;0,0957
1133,00;0,0959
1132,00;0,0961
1131,00;0,0963
1130,00;0,0964
1129,00;0,0965
1128,00;0,0965
1127,00;0,0965
1126,00;0,0965
1125,00;0,0964
1124,00;0,0964
1123,00;0,0963
1122,00;0,0962
1121,00;0,0961
1120,00;0,0961
1119,00;0,0960
1118,00;0,0961
1117,00;0,0962
1116,00;0,0964
1115,00;0,0966
1114,00;0,0969
1113,00;0,0970
1112,00;0,0971
1111,00;0,0970
1110,00;0,0967
1109,00;0,0964
1108,00;0,0960
1107,00;0,0955
1106,00;0,0950
1105,00;0,0944
1104,00;0,0938
1103,00;0,0932
1102,00;0,0926
1101,00;0,0920
1100,00;0,0914
1099,00;0,0908
1098,00;0,0902
1097,00;0,0896
1096,00;0,0890
1095,00;0,0885
1094,00;0,0880
1093,00;0,0876
1092,00;0,0874
1091,00;0,0872
1090,00;0,0871
1089,00;0,0871
1088,00;0,0872
1087,00;0,0872
1086,00;0,0873
1085,00;0,0874
1084,00;0,0875
1083,00;0,0875
1082,00;0,0875
1081,00;0,0875
1080,00;0,0875
1079,00;0,0875
1078,00;0,0875
1077,00;0,0876
1076,00;0,0878
1075,00;0,0881
1074,00;0,0884
1073,00;0,0886
1072,00;0,0887
1071,00;0,0887
1070,00;0,0886
1069,00;0,0885
1068,00;0,0884
1067,00;0,0882
1066,00;0,0880
1065,00;0,0878
1064,00;0,0875
1063,00;0,0872
1062,00;0,0869
1061,00;0,0865
1060,00;0,0862
1059,00;0,0859
1058,00;0,0856
1057,00;0,0852
1056,00;0,0849
1055,00;0,0845
1054,00;0,0842
1053,00;0,0839
1052,00;0,0835
1051,00;0,0831
1050,00;0,0827
1049,00;0,0821
1048,00;0,0814
1047,00;0,0807
1046,00;0,0799
1045,00;0,0792
1044,00;0,0785
1043,00;0,0776
1042,00;0,0768
1041,00;0,0759
1040,00;0,0750
1039,00;0,0741
1038,00;0,0732
1037,00;0,0722
1036,00;0,0713
1035,00;0,0704
1034,00;0,0695
1033,00;0,0686
1032,00;0,0677
1031,00;0,0668
1030,00;0,0659
1029,00;0,0651
1028,00;0,0644
1027,00;0,0636
1026,00;0,0628
1025,00;0,0619
1024,00;0,0611
1023,00;0,0603
1022,00;0,0595
1021,00;0,0588
1020,00;0,0581
1019,00;0,0576
1018,00;0,0570
1017,00;0,0566
1016,00;0,0563
1015,00;0,0559
1014,00;0,0556
1013,00;0,0552
1012,00;0,0550
1011,00;0,0547
1010,00;0,0546
1009,00;0,0545
1008,00;0,0546
1007,00;0,0548
1006,00;0,0552
1005,00;0,0557
1004,00;0,0562
1003,00;0,0568
1002,00;0,0572
1001,00;0,0575
1000,00;0,0576
999,00;0,0573
998,00;0,0567
997,00;0,0559
996,00;0,0549
995,00;0,0538
994,00;0,0528
993,00;0,0518
992,00;0,0509
991,00;0,0501
990,00;0,0493
989,00;0,0486
988,00;0,0479
987,00;0,0473
986,00;0,0466
985,00;0,0460
984,00;0,0455
983,00;0,0449
982,00;0,0444
981,00;0,0438
980,00;0,0432
979,00;0,0426
978,00;0,0420
977,00;0,0415
976,00;0,0410
975,00;0,0405
974,00;0,0400
973,00;0,0395
972,00;0,0390
971,00;0,0384
970,00;0,0380
969,00;0,0375
968,00;0,0370
967,00;0,0366
966,00;0,0361
965,00;0,0356
964,00;0,0352
963,00;0,0347
962,00;0,0343
961,00;0,0339
960,00;0,0335
959,00;0,0331
958,00;0,0327
957,00;0,0323
956,00;0,0320
955,00;0,0316
954,00;0,0313
953,00;0,0310
952,00;0,0307
951,00;0,0305
950,00;0,0302
949,00;0,0298
948,00;0,0295
947,00;0,0291
946,00;0,0288
945,00;0,0285
944,00;0,0282
943,00;0,0279
942,00;0,0277
941,00;0,0274
940,00;0,0272
939,00;0,0269
938,00;0,0267
937,00;0,0264
936,00;0,0262
935,00;0,0260
934,00;0,0257
933,00;0,0254
932,00;0,0252
931,00;0,0249
930,00;0,0247
929,00;0,0245
928,00;0,0243
927,00;0,0242
926,00;0,0240
925,00;0,0238
924,00;0,0236
923,00;0,0234
922,00;0,0233
921,00;0,0231
920,00;0,0229
919,00;0,0227
918,00;0,0225
917,00;0,0223
916,00;0,0221
915,00;0,0219
914,00;0,0218
913,00;0,0216
912,00;0,0214
911,00;0,0213
910,00;0,0211
909,00;0,0209
908,00;0,0208
907,00;0,0206
906,00;0,0204
905,00;0,0203
904,00;0,0202
903,00;0,0200
902,00;0,0199
901,00;0,0198
900,00;0,0197
899,00;0,0195
898,00;0,0194
897,00;0,0193
896,00;0,0192
895,00;0,0191
894,00;0,0190
893,00;0,0189
892,00;0,0188
891,00;0,0187
890,00;0,0186
889,00;0,0184
888,00;0,0184
887,00;0,0183
886,00;0,0182
885,00;0,0181
884,00;0,0181
883,00;0,0180
882,00;0,0179
881,00;0,0178
880,00;0,0178
879,00;0,0177
878,00;0,0176
877,00;0,0175
876,00;0,0174
875,00;0,0174
874,00;0,0174
873,00;0,0173
872,00;0,0173
871,00;0,0172
870,00;0,0172
869,00;0,0171
868,00;0,0171
867,00;0,0170
866,00;0,0170
865,00;0,0169
864,00;0,0169
863,00;0,0169
862,00;0,0168
861,00;0,0168
860,00;0,0167
859,00;0,0167
858,00;0,0166
857,00;0,0165
856,00;0,0164
855,00;0,0164
854,00;0,0164
853,00;0,0164
852,00;0,0163
851,00;0,0163
850,00;0,0163
849,00;0,0164
848,00;0,0164
847,00;0,0163
846,00;0,0163
845,00;0,0163
844,00;0,0163
843,00;0,0163
842,00;0,0163
841,00;0,0163
840,00;0,0163
839,00;0,0162
838,00;0,0162
837,00;0,0163
836,00;0,0163
835,00;0,0163
834,00;0,0163
833,00;0,0163
832,00;0,0164
831,00;0,0164
830,00;0,0164
829,00;0,0164
828,00;0,0163
827,00;0,0163
826,00;0,0162
825,00;0,0162
824,00;0,0162
823,00;0,0162
822,00;0,0162
821,00;0,0162
820,00;0,0162
819,00;0,0162
818,00;0,0162
817,00;0,0163
816,00;0,0163
815,00;0,0164
814,00;0,0164
813,00;0,0164
812,00;0,0164
811,00;0,0164
810,00;0,0163
809,00;0,0163
808,00;0,0163
807,00;0,0162
806,00;0,0162
805,00;0,0162
804,00;0,0163
803,00;0,0163
802,00;0,0163
801,00;0,0163
800,00;0,0163
799,00;0,0163
798,00;0,0162
797,00;0,0162
796,00;0,0162
795,00;0,0162
794,00;0,0162
793,00;0,0162
792,00;0,0162
791,00;0,0162
790,00;0,0162
789,00;0,0162
788,00;0,0162
787,00;0,0162
786,00;0,0162
785,00;0,0162
784,00;0,0162
783,00;0,0162
782,00;0,0162
781,00;0,0162
780,00;0,0162
779,00;0,0162
778,00;0,0162
777,00;0,0162
776,00;0,0162
775,00;0,0162
774,00;0,0161
773,00;0,0161
772,00;0,0161
771,00;0,0161
770,00;0,0161
769,00;0,0161
768,00;0,0162
767,00;0,0162
766,00;0,0161
765,00;0,0160
764,00;0,0159
763,00;0,0158
762,00;0,0158
761,00;0,0157
760,00;0,0156
759,00;0,0155
758,00;0,0152
757,00;0,0150
756,00;0,0147
755,00;0,0145
754,00;0,0143
753,00;0,0142
752,00;0,0142
751,00;0,0142
750,00;0,0142
749,00;0,0143
748,00;0,0146
747,00;0,0149
746,00;0,0152
745,00;0,0156
744,00;0,0161
743,00;0,0165
742,00;0,0169
741,00;0,0173
740,00;0,0177
739,00;0,0181
738,00;0,0185
737,00;0,0189
736,00;0,0193
735,00;0,0196
734,00;0,0199
733,00;0,0200
732,00;0,0201
731,00;0,0201
730,00;0,0200
729,00;0,0199
728,00;0,0197
727,00;0,0195
726,00;0,0192
725,00;0,0189
724,00;0,0186
723,00;0,0182
722,00;0,0178
721,00;0,0174
720,00;0,0170
719,00;0,0168
718,00;0,0165
717,00;0,0163
716,00;0,0162
715,00;0,0162
714,00;0,0163
713,00;0,0164
712,00;0,0167
711,00;0,0169
710,00;0,0170
709,00;0,0172
708,00;0,0174
707,00;0,0177
706,00;0,0180
705,00;0,0183
704,00;0,0186
703,00;0,0189
702,00;0,0193
701,00;0,0197
700,00;0,0201
699,00;0,0205
698,00;0,0208
697,00;0,0210
696,00;0,0212
695,00;0,0213
694,00;0,0214
693,00;0,0214
692,00;0,0213
691,00;0,0211
690,00;0,0207
689,00;0,0204
688,00;0,0202
687,00;0,0198
686,00;0,0193
685,00;0,0187
684,00;0,0181
683,00;0,0176
682,00;0,0172
681,00;0,0169
680,00;0,0166
679,00;0,0162
678,00;0,0158
677,00;0,0153
676,00;0,0149
675,00;0,0145
674,00;0,0142
673,00;0,0139
672,00;0,0135
671,00;0,0131
670,00;0,0127
669,00;0,0127
668,00;0,0130
667,00;0,0132
666,00;0,0132
665,00;0,0131
664,00;0,0131
663,00;0,0135
662,00;0,0139
661,00;0,0143
660,00;0,0145
659,00;0,0147
658,00;0,0149
657,00;0,0151
656,00;0,0154
655,00;0,0157
654,00;0,0162
653,00;0,0168
652,00;0,0174
651,00;0,0180
650,00;0,0186
649,00;0,0194
648,00;0,0203
647,00;0,0214
646,00;0,0223
645,00;0,0233
644,00;0,0243
643,00;0,0252
642,00;0,0260
641,00;0,0268
640,00;0,0277
639,00;0,0284
638,00;0,0289
637,00;0,0292
636,00;0,0296
635,00;0,0299
634,00;0,0299
633,00;0,0298
632,00;0,0295
631,00;0,0290
630,00;0,0283
629,00;0,0277
628,00;0,0272
627,00;0,0266
626,00;0,0259
625,00;0,0252
624,00;0,0244
623,00;0,0234
622,00;0,0223
621,00;0,0210
620,00;0,0197
619,00;0,0182
618,00;0,0167
617,00;0,0155
616,00;0,0145
615,00;0,0137
614,00;0,0130
613,00;0,0125
612,00;0,0123
611,00;0,0121
610,00;0,0121
609,00;0,0123
608,00;0,0128
607,00;0,0133
606,00;0,0137
605,00;0,0143
604,00;0,0150
603,00;0,0157
602,00;0,0162
601,00;0,0166
600,00;0,0169
599,00;0,0171
598,00;0,0173
597,00;0,0176
596,00;0,0179
595,00;0,0180
594,00;0,0179
593,00;0,0179
592,00;0,0181
591,00;0,0182
590,00;0,0182
589,00;0,0183
588,00;0,0187
587,00;0,0191
586,00;0,0192
585,00;0,0193
584,00;0,0195
583,00;0,0197
582,00;0,0198
581,00;0,0201
580,00;0,0203
579,00;0,0202
578,00;0,0199
577,00;0,0197
576,00;0,0199
575,00;0,0203
574,00;0,0206
573,00;0,0209
572,00;0,0214
571,00;0,0218
570,00;0,0220
569,00;0,0225
568,00;0,0234
567,00;0,0243
566,00;0,0252
565,00;0,0264
564,00;0,0277
563,00;0,0289
562,00;0,0300
561,00;0,0311
560,00;0,0323
559,00;0,0334
558,00;0,0344
557,00;0,0356
556,00;0,0368
555,00;0,0376
554,00;0,0380
553,00;0,0381
552,00;0,0384
551,00;0,0383
550,00;0,0379
549,00;0,0377
548,00;0,0374
547,00;0,0367
546,00;0,0355
545,00;0,0342
544,00;0,0332
543,00;0,0318
542,00;0,0299
541,00;0,0278
540,00;0,0258
539,00;0,0237
538,00;0,0214
537,00;0,0192
536,00;0,0171
535,00;0,0145
534,00;0,0114
533,00;0,0083
532,00;0,0054
531,00;0,0024
530,00;-0,0009
529,00;-0,0042
528,00;-0,0073
527,00;-0,0105
526,00;-0,0142
525,00;-0,0179
524,00;-0,0216
523,00;-0,0257
522,00;-0,0301
521,00;-0,0342
520,00;-0,0379
519,00;-0,0418
518,00;-0,0458
517,00;-0,0499
516,00;-0,0539
515,00;-0,0581
514,00;-0,0625
513,00;-0,0666
512,00;-0,0703
511,00;-0,0739
510,00;-0,0775
509,00;-0,0810
508,00;-0,0845
507,00;-0,0883
506,00;-0,0923
505,00;-0,0958
504,00;-0,0990
503,00;-0,1021
502,00;-0,1053
501,00;-0,1081
500,00;-0,1105
