Создан как новый массив данных;Образец 010 полученный BalashovM Дата среда, апреля 28 2021
cm-1;A
4000,00;0,0162
3999,00;0,0162
3998,00;0,0162
3997,00;0,0162
3996,00;0,0162
3995,00;0,0162
3994,00;0,0162
3993,00;0,0162
3992,00;0,0162
3991,00;0,0162
3990,00;0,0162
3989,00;0,0162
3988,00;0,0163
3987,00;0,0163
3986,00;0,0163
3985,00;0,0163
3984,00;0,0163
3983,00;0,0163
3982,00;0,0163
3981,00;0,0163
3980,00;0,0163
3979,00;0,0163
3978,00;0,0163
3977,00;0,0163
3976,00;0,0163
3975,00;0,0163
3974,00;0,0163
3973,00;0,0163
3972,00;0,0163
3971,00;0,0163
3970,00;0,0163
3969,00;0,0163
3968,00;0,0163
3967,00;0,0163
3966,00;0,0163
3965,00;0,0163
3964,00;0,0163
3963,00;0,0163
3962,00;0,0163
3961,00;0,0163
3960,00;0,0164
3959,00;0,0164
3958,00;0,0164
3957,00;0,0164
3956,00;0,0164
3955,00;0,0164
3954,00;0,0164
3953,00;0,0164
3952,00;0,0164
3951,00;0,0164
3950,00;0,0164
3949,00;0,0164
3948,00;0,0164
3947,00;0,0164
3946,00;0,0164
3945,00;0,0164
3944,00;0,0164
3943,00;0,0164
3942,00;0,0164
3941,00;0,0164
3940,00;0,0164
3939,00;0,0164
3938,00;0,0164
3937,00;0,0164
3936,00;0,0164
3935,00;0,0164
3934,00;0,0164
3933,00;0,0164
3932,00;0,0164
3931,00;0,0164
3930,00;0,0164
3929,00;0,0164
3928,00;0,0164
3927,00;0,0164
3926,00;0,0164
3925,00;0,0164
3924,00;0,0164
3923,00;0,0164
3922,00;0,0164
3921,00;0,0164
3920,00;0,0164
3919,00;0,0164
3918,00;0,0164
3917,00;0,0164
3916,00;0,0164
3915,00;0,0164
3914,00;0,0164
3913,00;0,0164
3912,00;0,0164
3911,00;0,0164
3910,00;0,0164
3909,00;0,0164
3908,00;0,0164
3907,00;0,0164
3906,00;0,0164
3905,00;0,0164
3904,00;0,0164
3903,00;0,0164
3902,00;0,0164
3901,00;0,0164
3900,00;0,0164
3899,00;0,0164
3898,00;0,0164
3897,00;0,0164
3896,00;0,0164
3895,00;0,0164
3894,00;0,0164
3893,00;0,0164
3892,00;0,0164
3891,00;0,0164
3890,00;0,0164
3889,00;0,0164
3888,00;0,0164
3887,00;0,0164
3886,00;0,0164
3885,00;0,0164
3884,00;0,0164
3883,00;0,0164
3882,00;0,0164
3881,00;0,0164
3880,00;0,0164
3879,00;0,0164
3878,00;0,0164
3877,00;0,0164
3876,00;0,0164
3875,00;0,0164
3874,00;0,0164
3873,00;0,0164
3872,00;0,0163
3871,00;0,0163
3870,00;0,0163
3869,00;0,0163
3868,00;0,0163
3867,00;0,0164
3866,00;0,0164
3865,00;0,0164
3864,00;0,0164
3863,00;0,0164
3862,00;0,0164
3861,00;0,0164
3860,00;0,0164
3859,00;0,0164
3858,00;0,0163
3857,00;0,0163
3856,00;0,0162
3855,00;0,0162
3854,00;0,0162
3853,00;0,0162
3852,00;0,0162
3851,00;0,0162
3850,00;0,0163
3849,00;0,0163
3848,00;0,0164
3847,00;0,0164
3846,00;0,0164
3845,00;0,0164
3844,00;0,0164
3843,00;0,0164
3842,00;0,0163
3841,00;0,0163
3840,00;0,0163
3839,00;0,0163
3838,00;0,0163
3837,00;0,0163
3836,00;0,0163
3835,00;0,0163
3834,00;0,0163
3833,00;0,0163
3832,00;0,0163
3831,00;0,0163
3830,00;0,0164
3829,00;0,0164
3828,00;0,0164
3827,00;0,0164
3826,00;0,0164
3825,00;0,0164
3824,00;0,0164
3823,00;0,0164
3822,00;0,0164
3821,00;0,0164
3820,00;0,0163
3819,00;0,0163
3818,00;0,0163
3817,00;0,0163
3816,00;0,0163
3815,00;0,0163
3814,00;0,0164
3813,00;0,0164
3812,00;0,0164
3811,00;0,0164
3810,00;0,0164
3809,00;0,0164
3808,00;0,0164
3807,00;0,0164
3806,00;0,0164
3805,00;0,0164
3804,00;0,0164
3803,00;0,0163
3802,00;0,0163
3801,00;0,0164
3800,00;0,0163
3799,00;0,0164
3798,00;0,0164
3797,00;0,0164
3796,00;0,0164
3795,00;0,0164
3794,00;0,0165
3793,00;0,0165
3792,00;0,0165
3791,00;0,0165
3790,00;0,0165
3789,00;0,0165
3788,00;0,0165
3787,00;0,0165
3786,00;0,0165
3785,00;0,0165
3784,00;0,0165
3783,00;0,0165
3782,00;0,0165
3781,00;0,0165
3780,00;0,0165
3779,00;0,0165
3778,00;0,0165
3777,00;0,0165
3776,00;0,0165
3775,00;0,0165
3774,00;0,0166
3773,00;0,0165
3772,00;0,0165
3771,00;0,0165
3770,00;0,0165
3769,00;0,0165
3768,00;0,0165
3767,00;0,0165
3766,00;0,0165
3765,00;0,0165
3764,00;0,0165
3763,00;0,0165
3762,00;0,0165
3761,00;0,0165
3760,00;0,0165
3759,00;0,0165
3758,00;0,0165
3757,00;0,0165
3756,00;0,0164
3755,00;0,0164
3754,00;0,0163
3753,00;0,0163
3752,00;0,0162
3751,00;0,0162
3750,00;0,0162
3749,00;0,0162
3748,00;0,0161
3747,00;0,0161
3746,00;0,0162
3745,00;0,0162
3744,00;0,0162
3743,00;0,0163
3742,00;0,0163
3741,00;0,0163
3740,00;0,0164
3739,00;0,0164
3738,00;0,0165
3737,00;0,0165
3736,00;0,0165
3735,00;0,0165
3734,00;0,0165
3733,00;0,0165
3732,00;0,0165
3731,00;0,0165
3730,00;0,0165
3729,00;0,0165
3728,00;0,0165
3727,00;0,0165
3726,00;0,0165
3725,00;0,0165
3724,00;0,0165
3723,00;0,0165
3722,00;0,0165
3721,00;0,0165
3720,00;0,0165
3719,00;0,0165
3718,00;0,0165
3717,00;0,0165
3716,00;0,0165
3715,00;0,0165
3714,00;0,0164
3713,00;0,0164
3712,00;0,0165
3711,00;0,0165
3710,00;0,0165
3709,00;0,0165
3708,00;0,0165
3707,00;0,0165
3706,00;0,0165
3705,00;0,0166
3704,00;0,0166
3703,00;0,0166
3702,00;0,0166
3701,00;0,0167
3700,00;0,0167
3699,00;0,0167
3698,00;0,0167
3697,00;0,0167
3696,00;0,0167
3695,00;0,0167
3694,00;0,0167
3693,00;0,0167
3692,00;0,0166
3691,00;0,0166
3690,00;0,0166
3689,00;0,0165
3688,00;0,0165
3687,00;0,0165
3686,00;0,0165
3685,00;0,0166
3684,00;0,0166
3683,00;0,0166
3682,00;0,0167
3681,00;0,0167
3680,00;0,0167
3679,00;0,0166
3678,00;0,0166
3677,00;0,0166
3676,00;0,0165
3675,00;0,0165
3674,00;0,0165
3673,00;0,0165
3672,00;0,0165
3671,00;0,0166
3670,00;0,0166
3669,00;0,0166
3668,00;0,0167
3667,00;0,0167
3666,00;0,0167
3665,00;0,0167
3664,00;0,0168
3663,00;0,0168
3662,00;0,0168
3661,00;0,0168
3660,00;0,0168
3659,00;0,0168
3658,00;0,0168
3657,00;0,0168
3656,00;0,0168
3655,00;0,0168
3654,00;0,0168
3653,00;0,0167
3652,00;0,0167
3651,00;0,0167
3650,00;0,0168
3649,00;0,0168
3648,00;0,0168
3647,00;0,0169
3646,00;0,0169
3645,00;0,0169
3644,00;0,0170
3643,00;0,0170
3642,00;0,0171
3641,00;0,0171
3640,00;0,0171
3639,00;0,0171
3638,00;0,0171
3637,00;0,0172
3636,00;0,0172
3635,00;0,0172
3634,00;0,0172
3633,00;0,0172
3632,00;0,0172
3631,00;0,0172
3630,00;0,0173
3629,00;0,0173
3628,00;0,0174
3627,00;0,0175
3626,00;0,0175
3625,00;0,0175
3624,00;0,0175
3623,00;0,0176
3622,00;0,0176
3621,00;0,0176
3620,00;0,0177
3619,00;0,0177
3618,00;0,0178
3617,00;0,0178
3616,00;0,0178
3615,00;0,0179
3614,00;0,0179
3613,00;0,0179
3612,00;0,0180
3611,00;0,0180
3610,00;0,0181
3609,00;0,0181
3608,00;0,0182
3607,00;0,0182
3606,00;0,0183
3605,00;0,0183
3604,00;0,0184
3603,00;0,0184
3602,00;0,0185
3601,00;0,0185
3600,00;0,0186
3599,00;0,0186
3598,00;0,0187
3597,00;0,0187
3596,00;0,0188
3595,00;0,0188
3594,00;0,0189
3593,00;0,0189
3592,00;0,0190
3591,00;0,0190
3590,00;0,0191
3589,00;0,0191
3588,00;0,0192
3587,00;0,0192
3586,00;0,0193
3585,00;0,0193
3584,00;0,0194
3583,00;0,0194
3582,00;0,0195
3581,00;0,0195
3580,00;0,0196
3579,00;0,0197
3578,00;0,0197
3577,00;0,0197
3576,00;0,0198
3575,00;0,0198
3574,00;0,0199
3573,00;0,0200
3572,00;0,0200
3571,00;0,0201
3570,00;0,0201
3569,00;0,0202
3568,00;0,0202
3567,00;0,0203
3566,00;0,0203
3565,00;0,0204
3564,00;0,0204
3563,00;0,0205
3562,00;0,0206
3561,00;0,0206
3560,00;0,0207
3559,00;0,0207
3558,00;0,0208
3557,00;0,0208
3556,00;0,0209
3555,00;0,0209
3554,00;0,0210
3553,00;0,0210
3552,00;0,0211
3551,00;0,0211
3550,00;0,0212
3549,00;0,0212
3548,00;0,0213
3547,00;0,0214
3546,00;0,0214
3545,00;0,0215
3544,00;0,0215
3543,00;0,0216
3542,00;0,0216
3541,00;0,0217
3540,00;0,0217
3539,00;0,0217
3538,00;0,0218
3537,00;0,0219
3536,00;0,0219
3535,00;0,0220
3534,00;0,0220
3533,00;0,0220
3532,00;0,0221
3531,00;0,0222
3530,00;0,0222
3529,00;0,0223
3528,00;0,0223
3527,00;0,0224
3526,00;0,0224
3525,00;0,0224
3524,00;0,0225
3523,00;0,0225
3522,00;0,0226
3521,00;0,0226
3520,00;0,0227
3519,00;0,0227
3518,00;0,0227
3517,00;0,0228
3516,00;0,0228
3515,00;0,0229
3514,00;0,0229
3513,00;0,0230
3512,00;0,0230
3511,00;0,0231
3510,00;0,0231
3509,00;0,0231
3508,00;0,0232
3507,00;0,0232
3506,00;0,0233
3505,00;0,0233
3504,00;0,0234
3503,00;0,0235
3502,00;0,0235
3501,00;0,0235
3500,00;0,0236
3499,00;0,0236
3498,00;0,0236
3497,00;0,0237
3496,00;0,0237
3495,00;0,0237
3494,00;0,0238
3493,00;0,0238
3492,00;0,0239
3491,00;0,0239
3490,00;0,0239
3489,00;0,0240
3488,00;0,0240
3487,00;0,0240
3486,00;0,0241
3485,00;0,0241
3484,00;0,0241
3483,00;0,0242
3482,00;0,0242
3481,00;0,0243
3480,00;0,0243
3479,00;0,0243
3478,00;0,0243
3477,00;0,0244
3476,00;0,0244
3475,00;0,0244
3474,00;0,0245
3473,00;0,0245
3472,00;0,0245
3471,00;0,0246
3470,00;0,0246
3469,00;0,0246
3468,00;0,0246
3467,00;0,0247
3466,00;0,0247
3465,00;0,0247
3464,00;0,0248
3463,00;0,0248
3462,00;0,0248
3461,00;0,0248
3460,00;0,0249
3459,00;0,0249
3458,00;0,0249
3457,00;0,0249
3456,00;0,0250
3455,00;0,0250
3454,00;0,0250
3453,00;0,0250
3452,00;0,0250
3451,00;0,0251
3450,00;0,0251
3449,00;0,0251
3448,00;0,0252
3447,00;0,0252
3446,00;0,0252
3445,00;0,0252
3444,00;0,0252
3443,00;0,0253
3442,00;0,0253
3441,00;0,0253
3440,00;0,0253
3439,00;0,0254
3438,00;0,0254
3437,00;0,0254
3436,00;0,0254
3435,00;0,0254
3434,00;0,0255
3433,00;0,0255
3432,00;0,0255
3431,00;0,0255
3430,00;0,0255
3429,00;0,0256
3428,00;0,0256
3427,00;0,0256
3426,00;0,0256
3425,00;0,0256
3424,00;0,0257
3423,00;0,0257
3422,00;0,0257
3421,00;0,0257
3420,00;0,0258
3419,00;0,0258
3418,00;0,0258
3417,00;0,0258
3416,00;0,0258
3415,00;0,0258
3414,00;0,0258
3413,00;0,0259
3412,00;0,0259
3411,00;0,0259
3410,00;0,0259
3409,00;0,0259
3408,00;0,0259
3407,00;0,0260
3406,00;0,0260
3405,00;0,0260
3404,00;0,0260
3403,00;0,0260
3402,00;0,0260
3401,00;0,0261
3400,00;0,0261
3399,00;0,0261
3398,00;0,0261
3397,00;0,0261
3396,00;0,0261
3395,00;0,0262
3394,00;0,0262
3393,00;0,0262
3392,00;0,0262
3391,00;0,0262
3390,00;0,0262
3389,00;0,0262
3388,00;0,0262
3387,00;0,0262
3386,00;0,0262
3385,00;0,0262
3384,00;0,0263
3383,00;0,0263
3382,00;0,0263
3381,00;0,0263
3380,00;0,0263
3379,00;0,0263
3378,00;0,0263
3377,00;0,0263
3376,00;0,0263
3375,00;0,0263
3374,00;0,0263
3373,00;0,0264
3372,00;0,0264
3371,00;0,0264
3370,00;0,0264
3369,00;0,0264
3368,00;0,0264
3367,00;0,0264
3366,00;0,0264
3365,00;0,0264
3364,00;0,0264
3363,00;0,0264
3362,00;0,0264
3361,00;0,0264
3360,00;0,0264
3359,00;0,0264
3358,00;0,0264
3357,00;0,0265
3356,00;0,0265
3355,00;0,0265
3354,00;0,0265
3353,00;0,0265
3352,00;0,0265
3351,00;0,0265
3350,00;0,0265
3349,00;0,0265
3348,00;0,0265
3347,00;0,0265
3346,00;0,0265
3345,00;0,0265
3344,00;0,0265
3343,00;0,0265
3342,00;0,0265
3341,00;0,0265
3340,00;0,0265
3339,00;0,0265
3338,00;0,0265
3337,00;0,0265
3336,00;0,0265
3335,00;0,0265
3334,00;0,0265
3333,00;0,0266
3332,00;0,0266
3331,00;0,0266
3330,00;0,0266
3329,00;0,0266
3328,00;0,0266
3327,00;0,0266
3326,00;0,0266
3325,00;0,0266
3324,00;0,0266
3323,00;0,0266
3322,00;0,0266
3321,00;0,0266
3320,00;0,0266
3319,00;0,0266
3318,00;0,0266
3317,00;0,0266
3316,00;0,0266
3315,00;0,0266
3314,00;0,0266
3313,00;0,0266
3312,00;0,0266
3311,00;0,0266
3310,00;0,0266
3309,00;0,0266
3308,00;0,0266
3307,00;0,0266
3306,00;0,0266
3305,00;0,0266
3304,00;0,0266
3303,00;0,0266
3302,00;0,0266
3301,00;0,0266
3300,00;0,0266
3299,00;0,0266
3298,00;0,0266
3297,00;0,0266
3296,00;0,0266
3295,00;0,0267
3294,00;0,0267
3293,00;0,0267
3292,00;0,0267
3291,00;0,0267
3290,00;0,0267
3289,00;0,0267
3288,00;0,0267
3287,00;0,0267
3286,00;0,0267
3285,00;0,0267
3284,00;0,0267
3283,00;0,0267
3282,00;0,0267
3281,00;0,0267
3280,00;0,0267
3279,00;0,0267
3278,00;0,0267
3277,00;0,0267
3276,00;0,0267
3275,00;0,0267
3274,00;0,0267
3273,00;0,0267
3272,00;0,0267
3271,00;0,0267
3270,00;0,0267
3269,00;0,0267
3268,00;0,0267
3267,00;0,0267
3266,00;0,0267
3265,00;0,0267
3264,00;0,0267
3263,00;0,0267
3262,00;0,0267
3261,00;0,0267
3260,00;0,0267
3259,00;0,0267
3258,00;0,0267
3257,00;0,0267
3256,00;0,0267
3255,00;0,0267
3254,00;0,0267
3253,00;0,0267
3252,00;0,0267
3251,00;0,0267
3250,00;0,0267
3249,00;0,0267
3248,00;0,0267
3247,00;0,0267
3246,00;0,0267
3245,00;0,0267
3244,00;0,0267
3243,00;0,0267
3242,00;0,0268
3241,00;0,0268
3240,00;0,0268
3239,00;0,0268
3238,00;0,0268
3237,00;0,0268
3236,00;0,0268
3235,00;0,0268
3234,00;0,0268
3233,00;0,0268
3232,00;0,0268
3231,00;0,0268
3230,00;0,0268
3229,00;0,0267
3228,00;0,0267
3227,00;0,0267
3226,00;0,0268
3225,00;0,0268
3224,00;0,0268
3223,00;0,0268
3222,00;0,0268
3221,00;0,0268
3220,00;0,0268
3219,00;0,0268
3218,00;0,0268
3217,00;0,0268
3216,00;0,0268
3215,00;0,0268
3214,00;0,0268
3213,00;0,0267
3212,00;0,0267
3211,00;0,0267
3210,00;0,0267
3209,00;0,0267
3208,00;0,0267
3207,00;0,0267
3206,00;0,0267
3205,00;0,0267
3204,00;0,0267
3203,00;0,0267
3202,00;0,0267
3201,00;0,0267
3200,00;0,0267
3199,00;0,0267
3198,00;0,0267
3197,00;0,0267
3196,00;0,0267
3195,00;0,0267
3194,00;0,0267
3193,00;0,0267
3192,00;0,0267
3191,00;0,0267
3190,00;0,0267
3189,00;0,0266
3188,00;0,0266
3187,00;0,0266
3186,00;0,0266
3185,00;0,0266
3184,00;0,0266
3183,00;0,0266
3182,00;0,0266
3181,00;0,0266
3180,00;0,0266
3179,00;0,0266
3178,00;0,0266
3177,00;0,0266
3176,00;0,0266
3175,00;0,0266
3174,00;0,0266
3173,00;0,0266
3172,00;0,0265
3171,00;0,0265
3170,00;0,0265
3169,00;0,0265
3168,00;0,0265
3167,00;0,0265
3166,00;0,0265
3165,00;0,0265
3164,00;0,0265
3163,00;0,0265
3162,00;0,0265
3161,00;0,0265
3160,00;0,0265
3159,00;0,0265
3158,00;0,0265
3157,00;0,0265
3156,00;0,0265
3155,00;0,0265
3154,00;0,0264
3153,00;0,0264
3152,00;0,0264
3151,00;0,0264
3150,00;0,0264
3149,00;0,0264
3148,00;0,0264
3147,00;0,0264
3146,00;0,0264
3145,00;0,0264
3144,00;0,0264
3143,00;0,0264
3142,00;0,0264
3141,00;0,0264
3140,00;0,0264
3139,00;0,0264
3138,00;0,0263
3137,00;0,0263
3136,00;0,0263
3135,00;0,0263
3134,00;0,0263
3133,00;0,0263
3132,00;0,0263
3131,00;0,0263
3130,00;0,0263
3129,00;0,0263
3128,00;0,0263
3127,00;0,0263
3126,00;0,0263
3125,00;0,0263
3124,00;0,0263
3123,00;0,0262
3122,00;0,0262
3121,00;0,0262
3120,00;0,0262
3119,00;0,0262
3118,00;0,0262
3117,00;0,0262
3116,00;0,0262
3115,00;0,0262
3114,00;0,0262
3113,00;0,0261
3112,00;0,0261
3111,00;0,0261
3110,00;0,0261
3109,00;0,0261
3108,00;0,0261
3107,00;0,0261
3106,00;0,0261
3105,00;0,0261
3104,00;0,0261
3103,00;0,0261
3102,00;0,0261
3101,00;0,0260
3100,00;0,0260
3099,00;0,0260
3098,00;0,0260
3097,00;0,0260
3096,00;0,0260
3095,00;0,0260
3094,00;0,0260
3093,00;0,0260
3092,00;0,0260
3091,00;0,0260
3090,00;0,0260
3089,00;0,0259
3088,00;0,0259
3087,00;0,0259
3086,00;0,0259
3085,00;0,0259
3084,00;0,0259
3083,00;0,0259
3082,00;0,0259
3081,00;0,0259
3080,00;0,0258
3079,00;0,0258
3078,00;0,0258
3077,00;0,0258
3076,00;0,0258
3075,00;0,0258
3074,00;0,0258
3073,00;0,0258
3072,00;0,0258
3071,00;0,0258
3070,00;0,0258
3069,00;0,0258
3068,00;0,0258
3067,00;0,0257
3066,00;0,0257
3065,00;0,0257
3064,00;0,0257
3063,00;0,0257
3062,00;0,0257
3061,00;0,0257
3060,00;0,0257
3059,00;0,0257
3058,00;0,0257
3057,00;0,0256
3056,00;0,0256
3055,00;0,0256
3054,00;0,0256
3053,00;0,0256
3052,00;0,0256
3051,00;0,0256
3050,00;0,0256
3049,00;0,0256
3048,00;0,0256
3047,00;0,0256
3046,00;0,0256
3045,00;0,0255
3044,00;0,0255
3043,00;0,0255
3042,00;0,0255
3041,00;0,0255
3040,00;0,0255
3039,00;0,0255
3038,00;0,0255
3037,00;0,0255
3036,00;0,0255
3035,00;0,0255
3034,00;0,0255
3033,00;0,0255
3032,00;0,0254
3031,00;0,0254
3030,00;0,0254
3029,00;0,0254
3028,00;0,0254
3027,00;0,0254
3026,00;0,0254
3025,00;0,0254
3024,00;0,0254
3023,00;0,0254
3022,00;0,0254
3021,00;0,0254
3020,00;0,0254
3019,00;0,0254
3018,00;0,0254
3017,00;0,0254
3016,00;0,0254
3015,00;0,0254
3014,00;0,0254
3013,00;0,0254
3012,00;0,0253
3011,00;0,0253
3010,00;0,0253
3009,00;0,0253
3008,00;0,0253
3007,00;0,0253
3006,00;0,0253
3005,00;0,0253
3004,00;0,0253
3003,00;0,0253
3002,00;0,0253
3001,00;0,0253
3000,00;0,0253
2999,00;0,0253
2998,00;0,0253
2997,00;0,0253
2996,00;0,0253
2995,00;0,0253
2994,00;0,0253
2993,00;0,0253
2992,00;0,0253
2991,00;0,0254
2990,00;0,0254
2989,00;0,0254
2988,00;0,0254
2987,00;0,0253
2986,00;0,0253
2985,00;0,0253
2984,00;0,0253
2983,00;0,0253
2982,00;0,0253
2981,00;0,0254
2980,00;0,0253
2979,00;0,0253
2978,00;0,0253
2977,00;0,0252
2976,00;0,0252
2975,00;0,0252
2974,00;0,0251
2973,00;0,0251
2972,00;0,0251
2971,00;0,0250
2970,00;0,0250
2969,00;0,0250
2968,00;0,0249
2967,00;0,0249
2966,00;0,0248
2965,00;0,0248
2964,00;0,0248
2963,00;0,0247
2962,00;0,0247
2961,00;0,0247
2960,00;0,0246
2959,00;0,0246
2958,00;0,0246
2957,00;0,0246
2956,00;0,0246
2955,00;0,0245
2954,00;0,0245
2953,00;0,0245
2952,00;0,0245
2951,00;0,0245
2950,00;0,0245
2949,00;0,0244
2948,00;0,0244
2947,00;0,0244
2946,00;0,0244
2945,00;0,0243
2944,00;0,0243
2943,00;0,0243
2942,00;0,0242
2941,00;0,0242
2940,00;0,0242
2939,00;0,0241
2938,00;0,0241
2937,00;0,0241
2936,00;0,0240
2935,00;0,0240
2934,00;0,0240
2933,00;0,0239
2932,00;0,0239
2931,00;0,0238
2930,00;0,0238
2929,00;0,0238
2928,00;0,0237
2927,00;0,0237
2926,00;0,0237
2925,00;0,0237
2924,00;0,0237
2923,00;0,0237
2922,00;0,0237
2921,00;0,0236
2920,00;0,0236
2919,00;0,0237
2918,00;0,0237
2917,00;0,0237
2916,00;0,0237
2915,00;0,0237
2914,00;0,0238
2913,00;0,0238
2912,00;0,0238
2911,00;0,0239
2910,00;0,0239
2909,00;0,0239
2908,00;0,0239
2907,00;0,0239
2906,00;0,0239
2905,00;0,0239
2904,00;0,0240
2903,00;0,0240
2902,00;0,0240
2901,00;0,0240
2900,00;0,0240
2899,00;0,0239
2898,00;0,0239
2897,00;0,0239
2896,00;0,0239
2895,00;0,0239
2894,00;0,0239
2893,00;0,0239
2892,00;0,0239
2891,00;0,0239
2890,00;0,0238
2889,00;0,0238
2888,00;0,0238
2887,00;0,0238
2886,00;0,0238
2885,00;0,0237
2884,00;0,0237
2883,00;0,0237
2882,00;0,0237
2881,00;0,0237
2880,00;0,0236
2879,00;0,0236
2878,00;0,0236
2877,00;0,0235
2876,00;0,0235
2875,00;0,0235
2874,00;0,0235
2873,00;0,0235
2872,00;0,0235
2871,00;0,0235
2870,00;0,0234
2869,00;0,0234
2868,00;0,0234
2867,00;0,0234
2866,00;0,0234
2865,00;0,0233
2864,00;0,0233
2863,00;0,0232
2862,00;0,0232
2861,00;0,0232
2860,00;0,0231
2859,00;0,0231
2858,00;0,0231
2857,00;0,0230
2856,00;0,0230
2855,00;0,0230
2854,00;0,0230
2853,00;0,0229
2852,00;0,0229
2851,00;0,0229
2850,00;0,0229
2849,00;0,0229
2848,00;0,0229
2847,00;0,0230
2846,00;0,0230
2845,00;0,0230
2844,00;0,0230
2843,00;0,0230
2842,00;0,0230
2841,00;0,0230
2840,00;0,0230
2839,00;0,0230
2838,00;0,0229
2837,00;0,0229
2836,00;0,0229
2835,00;0,0229
2834,00;0,0229
2833,00;0,0229
2832,00;0,0229
2831,00;0,0229
2830,00;0,0229
2829,00;0,0229
2828,00;0,0229
2827,00;0,0229
2826,00;0,0229
2825,00;0,0229
2824,00;0,0229
2823,00;0,0229
2822,00;0,0229
2821,00;0,0228
2820,00;0,0228
2819,00;0,0228
2818,00;0,0228
2817,00;0,0228
2816,00;0,0228
2815,00;0,0228
2814,00;0,0227
2813,00;0,0227
2812,00;0,0227
2811,00;0,0227
2810,00;0,0227
2809,00;0,0227
2808,00;0,0227
2807,00;0,0227
2806,00;0,0226
2805,00;0,0226
2804,00;0,0226
2803,00;0,0226
2802,00;0,0226
2801,00;0,0225
2800,00;0,0225
2799,00;0,0225
2798,00;0,0225
2797,00;0,0225
2796,00;0,0225
2795,00;0,0225
2794,00;0,0225
2793,00;0,0225
2792,00;0,0225
2791,00;0,0225
2790,00;0,0224
2789,00;0,0224
2788,00;0,0224
2787,00;0,0224
2786,00;0,0224
2785,00;0,0224
2784,00;0,0224
2783,00;0,0224
2782,00;0,0224
2781,00;0,0224
2780,00;0,0223
2779,00;0,0223
2778,00;0,0223
2777,00;0,0223
2776,00;0,0223
2775,00;0,0223
2774,00;0,0223
2773,00;0,0223
2772,00;0,0222
2771,00;0,0222
2770,00;0,0222
2769,00;0,0222
2768,00;0,0222
2767,00;0,0222
2766,00;0,0222
2765,00;0,0222
2764,00;0,0222
2763,00;0,0222
2762,00;0,0221
2761,00;0,0221
2760,00;0,0221
2759,00;0,0221
2758,00;0,0221
2757,00;0,0221
2756,00;0,0221
2755,00;0,0221
2754,00;0,0221
2753,00;0,0221
2752,00;0,0220
2751,00;0,0220
2750,00;0,0220
2749,00;0,0220
2748,00;0,0220
2747,00;0,0220
2746,00;0,0220
2745,00;0,0220
2744,00;0,0220
2743,00;0,0220
2742,00;0,0219
2741,00;0,0219
2740,00;0,0219
2739,00;0,0219
2738,00;0,0219
2737,00;0,0219
2736,00;0,0219
2735,00;0,0219
2734,00;0,0219
2733,00;0,0219
2732,00;0,0219
2731,00;0,0218
2730,00;0,0218
2729,00;0,0218
2728,00;0,0218
2727,00;0,0218
2726,00;0,0218
2725,00;0,0218
2724,00;0,0218
2723,00;0,0218
2722,00;0,0218
2721,00;0,0218
2720,00;0,0218
2719,00;0,0217
2718,00;0,0217
2717,00;0,0217
2716,00;0,0217
2715,00;0,0217
2714,00;0,0217
2713,00;0,0217
2712,00;0,0217
2711,00;0,0217
2710,00;0,0217
2709,00;0,0216
2708,00;0,0216
2707,00;0,0216
2706,00;0,0216
2705,00;0,0216
2704,00;0,0216
2703,00;0,0216
2702,00;0,0216
2701,00;0,0216
2700,00;0,0216
2699,00;0,0216
2698,00;0,0216
2697,00;0,0216
2696,00;0,0216
2695,00;0,0216
2694,00;0,0215
2693,00;0,0215
2692,00;0,0215
2691,00;0,0215
2690,00;0,0215
2689,00;0,0215
2688,00;0,0215
2687,00;0,0215
2686,00;0,0214
2685,00;0,0214
2684,00;0,0214
2683,00;0,0214
2682,00;0,0214
2681,00;0,0214
2680,00;0,0214
2679,00;0,0214
2678,00;0,0214
2677,00;0,0214
2676,00;0,0214
2675,00;0,0214
2674,00;0,0214
2673,00;0,0214
2672,00;0,0214
2671,00;0,0214
2670,00;0,0214
2669,00;0,0214
2668,00;0,0214
2667,00;0,0214
2666,00;0,0214
2665,00;0,0214
2664,00;0,0214
2663,00;0,0214
2662,00;0,0215
2661,00;0,0215
2660,00;0,0215
2659,00;0,0215
2658,00;0,0215
2657,00;0,0215
2656,00;0,0215
2655,00;0,0215
2654,00;0,0215
2653,00;0,0215
2652,00;0,0215
2651,00;0,0215
2650,00;0,0215
2649,00;0,0214
2648,00;0,0214
2647,00;0,0214
2646,00;0,0214
2645,00;0,0214
2644,00;0,0214
2643,00;0,0213
2642,00;0,0213
2641,00;0,0213
2640,00;0,0213
2639,00;0,0213
2638,00;0,0213
2637,00;0,0213
2636,00;0,0212
2635,00;0,0212
2634,00;0,0212
2633,00;0,0212
2632,00;0,0212
2631,00;0,0212
2630,00;0,0212
2629,00;0,0211
2628,00;0,0211
2627,00;0,0211
2626,00;0,0211
2625,00;0,0211
2624,00;0,0211
2623,00;0,0210
2622,00;0,0210
2621,00;0,0210
2620,00;0,0210
2619,00;0,0210
2618,00;0,0210
2617,00;0,0209
2616,00;0,0209
2615,00;0,0209
2614,00;0,0209
2613,00;0,0209
2612,00;0,0209
2611,00;0,0209
2610,00;0,0208
2609,00;0,0208
2608,00;0,0208
2607,00;0,0208
2606,00;0,0208
2605,00;0,0208
2604,00;0,0208
2603,00;0,0207
2602,00;0,0207
2601,00;0,0207
2600,00;0,0207
2599,00;0,0207
2598,00;0,0207
2597,00;0,0207
2596,00;0,0207
2595,00;0,0207
2594,00;0,0206
2593,00;0,0206
2592,00;0,0206
2591,00;0,0206
2590,00;0,0206
2589,00;0,0206
2588,00;0,0206
2587,00;0,0205
2586,00;0,0205
2585,00;0,0205
2584,00;0,0205
2583,00;0,0205
2582,00;0,0205
2581,00;0,0205
2580,00;0,0205
2579,00;0,0205
2578,00;0,0204
2577,00;0,0204
2576,00;0,0204
2575,00;0,0204
2574,00;0,0204
2573,00;0,0204
2572,00;0,0204
2571,00;0,0204
2570,00;0,0204
2569,00;0,0204
2568,00;0,0204
2567,00;0,0203
2566,00;0,0203
2565,00;0,0203
2564,00;0,0203
2563,00;0,0203
2562,00;0,0203
2561,00;0,0203
2560,00;0,0203
2559,00;0,0203
2558,00;0,0203
2557,00;0,0203
2556,00;0,0202
2555,00;0,0202
2554,00;0,0202
2553,00;0,0202
2552,00;0,0202
2551,00;0,0202
2550,00;0,0202
2549,00;0,0202
2548,00;0,0202
2547,00;0,0202
2546,00;0,0202
2545,00;0,0202
2544,00;0,0201
2543,00;0,0201
2542,00;0,0201
2541,00;0,0201
2540,00;0,0201
2539,00;0,0201
2538,00;0,0201
2537,00;0,0201
2536,00;0,0201
2535,00;0,0201
2534,00;0,0201
2533,00;0,0201
2532,00;0,0201
2531,00;0,0201
2530,00;0,0200
2529,00;0,0200
2528,00;0,0200
2527,00;0,0200
2526,00;0,0200
2525,00;0,0200
2524,00;0,0200
2523,00;0,0200
2522,00;0,0200
2521,00;0,0200
2520,00;0,0200
2519,00;0,0200
2518,00;0,0200
2517,00;0,0200
2516,00;0,0200
2515,00;0,0200
2514,00;0,0200
2513,00;0,0200
2512,00;0,0200
2511,00;0,0200
2510,00;0,0199
2509,00;0,0199
2508,00;0,0199
2507,00;0,0199
2506,00;0,0199
2505,00;0,0199
2504,00;0,0199
2503,00;0,0199
2502,00;0,0199
2501,00;0,0199
2500,00;0,0199
2499,00;0,0199
2498,00;0,0199
2497,00;0,0199
2496,00;0,0199
2495,00;0,0199
2494,00;0,0199
2493,00;0,0199
2492,00;0,0199
2491,00;0,0199
2490,00;0,0199
2489,00;0,0199
2488,00;0,0199
2487,00;0,0199
2486,00;0,0199
2485,00;0,0199
2484,00;0,0199
2483,00;0,0198
2482,00;0,0198
2481,00;0,0198
2480,00;0,0198
2479,00;0,0198
2478,00;0,0198
2477,00;0,0198
2476,00;0,0198
2475,00;0,0198
2474,00;0,0198
2473,00;0,0198
2472,00;0,0198
2471,00;0,0198
2470,00;0,0198
2469,00;0,0198
2468,00;0,0198
2467,00;0,0198
2466,00;0,0198
2465,00;0,0198
2464,00;0,0198
2463,00;0,0198
2462,00;0,0198
2461,00;0,0198
2460,00;0,0198
2459,00;0,0198
2458,00;0,0198
2457,00;0,0198
2456,00;0,0198
2455,00;0,0198
2454,00;0,0198
2453,00;0,0198
2452,00;0,0198
2451,00;0,0198
2450,00;0,0198
2449,00;0,0198
2448,00;0,0198
2447,00;0,0198
2446,00;0,0198
2445,00;0,0198
2444,00;0,0198
2443,00;0,0198
2442,00;0,0198
2441,00;0,0198
2440,00;0,0198
2439,00;0,0198
2438,00;0,0198
2437,00;0,0197
2436,00;0,0197
2435,00;0,0197
2434,00;0,0197
2433,00;0,0197
2432,00;0,0197
2431,00;0,0197
2430,00;0,0197
2429,00;0,0197
2428,00;0,0196
2427,00;0,0196
2426,00;0,0196
2425,00;0,0197
2424,00;0,0197
2423,00;0,0197
2422,00;0,0197
2421,00;0,0197
2420,00;0,0196
2419,00;0,0196
2418,00;0,0196
2417,00;0,0196
2416,00;0,0196
2415,00;0,0196
2414,00;0,0196
2413,00;0,0195
2412,00;0,0195
2411,00;0,0195
2410,00;0,0195
2409,00;0,0196
2408,00;0,0196
2407,00;0,0195
2406,00;0,0195
2405,00;0,0195
2404,00;0,0195
2403,00;0,0195
2402,00;0,0195
2401,00;0,0195
2400,00;0,0195
2399,00;0,0195
2398,00;0,0195
2397,00;0,0195
2396,00;0,0195
2395,00;0,0195
2394,00;0,0196
2393,00;0,0196
2392,00;0,0196
2391,00;0,0195
2390,00;0,0196
2389,00;0,0196
2388,00;0,0196
2387,00;0,0196
2386,00;0,0197
2385,00;0,0197
2384,00;0,0198
2383,00;0,0198
2382,00;0,0199
2381,00;0,0199
2380,00;0,0200
2379,00;0,0200
2378,00;0,0200
2377,00;0,0200
2376,00;0,0200
2375,00;0,0200
2374,00;0,0201
2373,00;0,0201
2372,00;0,0201
2371,00;0,0202
2370,00;0,0202
2369,00;0,0202
2368,00;0,0202
2367,00;0,0202
2366,00;0,0202
2365,00;0,0202
2364,00;0,0203
2363,00;0,0204
2362,00;0,0204
2361,00;0,0205
2360,00;0,0206
2359,00;0,0207
2358,00;0,0207
2357,00;0,0207
2356,00;0,0208
2355,00;0,0208
2354,00;0,0208
2353,00;0,0209
2352,00;0,0209
2351,00;0,0210
2350,00;0,0210
2349,00;0,0210
2348,00;0,0211
2347,00;0,0212
2346,00;0,0213
2345,00;0,0214
2344,00;0,0215
2343,00;0,0215
2342,00;0,0216
2341,00;0,0216
2340,00;0,0216
2339,00;0,0215
2338,00;0,0215
2337,00;0,0215
2336,00;0,0215
2335,00;0,0215
2334,00;0,0215
2333,00;0,0216
2332,00;0,0216
2331,00;0,0216
2330,00;0,0215
2329,00;0,0216
2328,00;0,0217
2327,00;0,0218
2326,00;0,0220
2325,00;0,0221
2324,00;0,0222
2323,00;0,0221
2322,00;0,0220
2321,00;0,0218
2320,00;0,0217
2319,00;0,0216
2318,00;0,0215
2317,00;0,0215
2316,00;0,0214
2315,00;0,0214
2314,00;0,0214
2313,00;0,0213
2312,00;0,0213
2311,00;0,0213
2310,00;0,0213
2309,00;0,0213
2308,00;0,0213
2307,00;0,0213
2306,00;0,0212
2305,00;0,0212
2304,00;0,0211
2303,00;0,0210
2302,00;0,0210
2301,00;0,0210
2300,00;0,0210
2299,00;0,0209
2298,00;0,0209
2297,00;0,0209
2296,00;0,0208
2295,00;0,0208
2294,00;0,0208
2293,00;0,0208
2292,00;0,0208
2291,00;0,0208
2290,00;0,0208
2289,00;0,0207
2288,00;0,0207
2287,00;0,0207
2286,00;0,0207
2285,00;0,0206
2284,00;0,0206
2283,00;0,0205
2282,00;0,0205
2281,00;0,0204
2280,00;0,0204
2279,00;0,0203
2278,00;0,0203
2277,00;0,0202
2276,00;0,0202
2275,00;0,0201
2274,00;0,0201
2273,00;0,0200
2272,00;0,0200
2271,00;0,0200
2270,00;0,0199
2269,00;0,0199
2268,00;0,0199
2267,00;0,0199
2266,00;0,0199
2265,00;0,0199
2264,00;0,0199
2263,00;0,0198
2262,00;0,0198
2261,00;0,0197
2260,00;0,0197
2259,00;0,0197
2258,00;0,0196
2257,00;0,0196
2256,00;0,0196
2255,00;0,0195
2254,00;0,0195
2253,00;0,0195
2252,00;0,0195
2251,00;0,0195
2250,00;0,0195
2249,00;0,0195
2248,00;0,0195
2247,00;0,0195
2246,00;0,0195
2245,00;0,0195
2244,00;0,0195
2243,00;0,0195
2242,00;0,0194
2241,00;0,0194
2240,00;0,0194
2239,00;0,0194
2238,00;0,0194
2237,00;0,0194
2236,00;0,0194
2235,00;0,0193
2234,00;0,0193
2233,00;0,0193
2232,00;0,0193
2231,00;0,0193
2230,00;0,0193
2229,00;0,0193
2228,00;0,0193
2227,00;0,0193
2226,00;0,0193
2225,00;0,0193
2224,00;0,0193
2223,00;0,0192
2222,00;0,0192
2221,00;0,0192
2220,00;0,0192
2219,00;0,0192
2218,00;0,0192
2217,00;0,0192
2216,00;0,0192
2215,00;0,0192
2214,00;0,0192
2213,00;0,0192
2212,00;0,0192
2211,00;0,0191
2210,00;0,0191
2209,00;0,0191
2208,00;0,0191
2207,00;0,0191
2206,00;0,0191
2205,00;0,0191
2204,00;0,0191
2203,00;0,0192
2202,00;0,0192
2201,00;0,0192
2200,00;0,0191
2199,00;0,0190
2198,00;0,0190
2197,00;0,0191
2196,00;0,0191
2195,00;0,0191
2194,00;0,0191
2193,00;0,0191
2192,00;0,0191
2191,00;0,0190
2190,00;0,0190
2189,00;0,0190
2188,00;0,0191
2187,00;0,0191
2186,00;0,0191
2185,00;0,0190
2184,00;0,0190
2183,00;0,0190
2182,00;0,0189
2181,00;0,0187
2180,00;0,0187
2179,00;0,0187
2178,00;0,0187
2177,00;0,0187
2176,00;0,0187
2175,00;0,0187
2174,00;0,0187
2173,00;0,0187
2172,00;0,0187
2171,00;0,0187
2170,00;0,0188
2169,00;0,0189
2168,00;0,0190
2167,00;0,0190
2166,00;0,0190
2165,00;0,0189
2164,00;0,0189
2163,00;0,0189
2162,00;0,0188
2161,00;0,0186
2160,00;0,0182
2159,00;0,0178
2158,00;0,0174
2157,00;0,0172
2156,00;0,0172
2155,00;0,0172
2154,00;0,0173
2153,00;0,0175
2152,00;0,0177
2151,00;0,0177
2150,00;0,0177
2149,00;0,0177
2148,00;0,0176
2147,00;0,0175
2146,00;0,0175
2145,00;0,0175
2144,00;0,0175
2143,00;0,0175
2142,00;0,0175
2141,00;0,0176
2140,00;0,0176
2139,00;0,0175
2138,00;0,0175
2137,00;0,0174
2136,00;0,0173
2135,00;0,0173
2134,00;0,0172
2133,00;0,0172
2132,00;0,0173
2131,00;0,0174
2130,00;0,0174
2129,00;0,0175
2128,00;0,0175
2127,00;0,0176
2126,00;0,0177
2125,00;0,0178
2124,00;0,0179
2123,00;0,0179
2122,00;0,0179
2121,00;0,0180
2120,00;0,0180
2119,00;0,0181
2118,00;0,0182
2117,00;0,0183
2116,00;0,0184
2115,00;0,0184
2114,00;0,0184
2113,00;0,0184
2112,00;0,0184
2111,00;0,0183
2110,00;0,0183
2109,00;0,0183
2108,00;0,0183
2107,00;0,0183
2106,00;0,0183
2105,00;0,0183
2104,00;0,0183
2103,00;0,0183
2102,00;0,0183
2101,00;0,0183
2100,00;0,0184
2099,00;0,0184
2098,00;0,0184
2097,00;0,0183
2096,00;0,0182
2095,00;0,0181
2094,00;0,0181
2093,00;0,0181
2092,00;0,0182
2091,00;0,0183
2090,00;0,0184
2089,00;0,0184
2088,00;0,0185
2087,00;0,0185
2086,00;0,0185
2085,00;0,0185
2084,00;0,0185
2083,00;0,0185
2082,00;0,0185
2081,00;0,0185
2080,00;0,0185
2079,00;0,0184
2078,00;0,0184
2077,00;0,0185
2076,00;0,0185
2075,00;0,0185
2074,00;0,0185
2073,00;0,0184
2072,00;0,0184
2071,00;0,0184
2070,00;0,0184
2069,00;0,0184
2068,00;0,0184
2067,00;0,0184
2066,00;0,0184
2065,00;0,0184
2064,00;0,0184
2063,00;0,0183
2062,00;0,0183
2061,00;0,0183
2060,00;0,0183
2059,00;0,0184
2058,00;0,0184
2057,00;0,0184
2056,00;0,0184
2055,00;0,0183
2054,00;0,0184
2053,00;0,0185
2052,00;0,0186
2051,00;0,0187
2050,00;0,0187
2049,00;0,0186
2048,00;0,0185
2047,00;0,0184
2046,00;0,0184
2045,00;0,0184
2044,00;0,0184
2043,00;0,0184
2042,00;0,0183
2041,00;0,0182
2040,00;0,0181
2039,00;0,0181
2038,00;0,0180
2037,00;0,0180
2036,00;0,0180
2035,00;0,0180
2034,00;0,0179
2033,00;0,0178
2032,00;0,0177
2031,00;0,0177
2030,00;0,0177
2029,00;0,0176
2028,00;0,0176
2027,00;0,0176
2026,00;0,0176
2025,00;0,0176
2024,00;0,0176
2023,00;0,0176
2022,00;0,0175
2021,00;0,0175
2020,00;0,0175
2019,00;0,0175
2018,00;0,0175
2017,00;0,0176
2016,00;0,0176
2015,00;0,0176
2014,00;0,0177
2013,00;0,0176
2012,00;0,0176
2011,00;0,0176
2010,00;0,0176
2009,00;0,0175
2008,00;0,0175
2007,00;0,0174
2006,00;0,0174
2005,00;0,0174
2004,00;0,0174
2003,00;0,0175
2002,00;0,0175
2001,00;0,0174
2000,00;0,0174
1999,00;0,0174
1998,00;0,0174
1997,00;0,0174
1996,00;0,0175
1995,00;0,0175
1994,00;0,0176
1993,00;0,0176
1992,00;0,0176
1991,00;0,0175
1990,00;0,0175
1989,00;0,0176
1988,00;0,0176
1987,00;0,0175
1986,00;0,0175
1985,00;0,0175
1984,00;0,0175
1983,00;0,0175
1982,00;0,0176
1981,00;0,0176
1980,00;0,0176
1979,00;0,0176
1978,00;0,0175
1977,00;0,0174
1976,00;0,0173
1975,00;0,0172
1974,00;0,0172
1973,00;0,0173
1972,00;0,0173
1971,00;0,0173
1970,00;0,0173
1969,00;0,0173
1968,00;0,0173
1967,00;0,0173
1966,00;0,0172
1965,00;0,0172
1964,00;0,0171
1963,00;0,0171
1962,00;0,0171
1961,00;0,0171
1960,00;0,0171
1959,00;0,0170
1958,00;0,0170
1957,00;0,0170
1956,00;0,0171
1955,00;0,0171
1954,00;0,0171
1953,00;0,0172
1952,00;0,0172
1951,00;0,0172
1950,00;0,0172
1949,00;0,0172
1948,00;0,0172
1947,00;0,0172
1946,00;0,0172
1945,00;0,0172
1944,00;0,0172
1943,00;0,0171
1942,00;0,0171
1941,00;0,0171
1940,00;0,0171
1939,00;0,0171
1938,00;0,0171
1937,00;0,0172
1936,00;0,0172
1935,00;0,0172
1934,00;0,0172
1933,00;0,0172
1932,00;0,0172
1931,00;0,0172
1930,00;0,0172
1929,00;0,0172
1928,00;0,0172
1927,00;0,0172
1926,00;0,0172
1925,00;0,0172
1924,00;0,0172
1923,00;0,0173
1922,00;0,0173
1921,00;0,0173
1920,00;0,0173
1919,00;0,0173
1918,00;0,0173
1917,00;0,0173
1916,00;0,0173
1915,00;0,0173
1914,00;0,0173
1913,00;0,0173
1912,00;0,0173
1911,00;0,0173
1910,00;0,0173
1909,00;0,0173
1908,00;0,0173
1907,00;0,0173
1906,00;0,0173
1905,00;0,0173
1904,00;0,0173
1903,00;0,0173
1902,00;0,0173
1901,00;0,0173
1900,00;0,0173
1899,00;0,0173
1898,00;0,0173
1897,00;0,0173
1896,00;0,0173
1895,00;0,0173
1894,00;0,0173
1893,00;0,0173
1892,00;0,0173
1891,00;0,0173
1890,00;0,0173
1889,00;0,0173
1888,00;0,0173
1887,00;0,0173
1886,00;0,0173
1885,00;0,0173
1884,00;0,0173
1883,00;0,0173
1882,00;0,0173
1881,00;0,0173
1880,00;0,0173
1879,00;0,0173
1878,00;0,0173
1877,00;0,0173
1876,00;0,0173
1875,00;0,0173
1874,00;0,0173
1873,00;0,0173
1872,00;0,0173
1871,00;0,0173
1870,00;0,0173
1869,00;0,0173
1868,00;0,0173
1867,00;0,0173
1866,00;0,0173
1865,00;0,0173
1864,00;0,0173
1863,00;0,0173
1862,00;0,0173
1861,00;0,0173
1860,00;0,0173
1859,00;0,0173
1858,00;0,0173
1857,00;0,0173
1856,00;0,0173
1855,00;0,0173
1854,00;0,0173
1853,00;0,0173
1852,00;0,0172
1851,00;0,0172
1850,00;0,0172
1849,00;0,0172
1848,00;0,0172
1847,00;0,0172
1846,00;0,0172
1845,00;0,0172
1844,00;0,0172
1843,00;0,0172
1842,00;0,0172
1841,00;0,0172
1840,00;0,0172
1839,00;0,0172
1838,00;0,0172
1837,00;0,0172
1836,00;0,0172
1835,00;0,0172
1834,00;0,0172
1833,00;0,0172
1832,00;0,0172
1831,00;0,0172
1830,00;0,0172
1829,00;0,0172
1828,00;0,0172
1827,00;0,0172
1826,00;0,0172
1825,00;0,0172
1824,00;0,0172
1823,00;0,0172
1822,00;0,0172
1821,00;0,0172
1820,00;0,0172
1819,00;0,0171
1818,00;0,0171
1817,00;0,0171
1816,00;0,0172
1815,00;0,0172
1814,00;0,0172
1813,00;0,0172
1812,00;0,0173
1811,00;0,0173
1810,00;0,0173
1809,00;0,0173
1808,00;0,0173
1807,00;0,0173
1806,00;0,0173
1805,00;0,0173
1804,00;0,0174
1803,00;0,0174
1802,00;0,0174
1801,00;0,0174
1800,00;0,0174
1799,00;0,0174
1798,00;0,0174
1797,00;0,0174
1796,00;0,0174
1795,00;0,0174
1794,00;0,0174
1793,00;0,0174
1792,00;0,0174
1791,00;0,0175
1790,00;0,0175
1789,00;0,0175
1788,00;0,0175
1787,00;0,0175
1786,00;0,0175
1785,00;0,0175
1784,00;0,0175
1783,00;0,0175
1782,00;0,0175
1781,00;0,0175
1780,00;0,0175
1779,00;0,0175
1778,00;0,0175
1777,00;0,0175
1776,00;0,0175
1775,00;0,0175
1774,00;0,0175
1773,00;0,0176
1772,00;0,0176
1771,00;0,0176
1770,00;0,0176
1769,00;0,0176
1768,00;0,0176
1767,00;0,0176
1766,00;0,0176
1765,00;0,0176
1764,00;0,0176
1763,00;0,0176
1762,00;0,0176
1761,00;0,0176
1760,00;0,0176
1759,00;0,0176
1758,00;0,0176
1757,00;0,0176
1756,00;0,0176
1755,00;0,0176
1754,00;0,0176
1753,00;0,0176
1752,00;0,0176
1751,00;0,0177
1750,00;0,0176
1749,00;0,0177
1748,00;0,0177
1747,00;0,0177
1746,00;0,0177
1745,00;0,0177
1744,00;0,0177
1743,00;0,0177
1742,00;0,0177
1741,00;0,0177
1740,00;0,0177
1739,00;0,0177
1738,00;0,0177
1737,00;0,0177
1736,00;0,0177
1735,00;0,0177
1734,00;0,0177
1733,00;0,0177
1732,00;0,0178
1731,00;0,0178
1730,00;0,0178
1729,00;0,0178
1728,00;0,0178
1727,00;0,0178
1726,00;0,0178
1725,00;0,0179
1724,00;0,0179
1723,00;0,0179
1722,00;0,0179
1721,00;0,0180
1720,00;0,0180
1719,00;0,0180
1718,00;0,0181
1717,00;0,0182
1716,00;0,0182
1715,00;0,0182
1714,00;0,0182
1713,00;0,0182
1712,00;0,0182
1711,00;0,0183
1710,00;0,0183
1709,00;0,0183
1708,00;0,0183
1707,00;0,0184
1706,00;0,0184
1705,00;0,0184
1704,00;0,0184
1703,00;0,0184
1702,00;0,0184
1701,00;0,0184
1700,00;0,0185
1699,00;0,0185
1698,00;0,0186
1697,00;0,0186
1696,00;0,0187
1695,00;0,0187
1694,00;0,0188
1693,00;0,0188
1692,00;0,0188
1691,00;0,0189
1690,00;0,0189
1689,00;0,0189
1688,00;0,0190
1687,00;0,0190
1686,00;0,0190
1685,00;0,0191
1684,00;0,0192
1683,00;0,0193
1682,00;0,0193
1681,00;0,0194
1680,00;0,0194
1679,00;0,0195
1678,00;0,0195
1677,00;0,0196
1676,00;0,0196
1675,00;0,0197
1674,00;0,0197
1673,00;0,0198
1672,00;0,0199
1671,00;0,0200
1670,00;0,0201
1669,00;0,0202
1668,00;0,0202
1667,00;0,0203
1666,00;0,0204
1665,00;0,0204
1664,00;0,0205
1663,00;0,0206
1662,00;0,0208
1661,00;0,0209
1660,00;0,0210
1659,00;0,0211
1658,00;0,0212
1657,00;0,0212
1656,00;0,0213
1655,00;0,0213
1654,00;0,0214
1653,00;0,0216
1652,00;0,0217
1651,00;0,0218
1650,00;0,0219
1649,00;0,0220
1648,00;0,0220
1647,00;0,0221
1646,00;0,0222
1645,00;0,0223
1644,00;0,0224
1643,00;0,0225
1642,00;0,0225
1641,00;0,0226
1640,00;0,0227
1639,00;0,0227
1638,00;0,0227
1637,00;0,0228
1636,00;0,0228
1635,00;0,0228
1634,00;0,0229
1633,00;0,0230
1632,00;0,0230
1631,00;0,0230
1630,00;0,0230
1629,00;0,0231
1628,00;0,0231
1627,00;0,0231
1626,00;0,0231
1625,00;0,0231
1624,00;0,0230
1623,00;0,0230
1622,00;0,0230
1621,00;0,0230
1620,00;0,0229
1619,00;0,0229
1618,00;0,0228
1617,00;0,0227
1616,00;0,0226
1615,00;0,0226
1614,00;0,0225
1613,00;0,0225
1612,00;0,0224
1611,00;0,0224
1610,00;0,0223
1609,00;0,0222
1608,00;0,0222
1607,00;0,0221
1606,00;0,0220
1605,00;0,0220
1604,00;0,0219
1603,00;0,0219
1602,00;0,0218
1601,00;0,0217
1600,00;0,0216
1599,00;0,0216
1598,00;0,0215
1597,00;0,0215
1596,00;0,0214
1595,00;0,0214
1594,00;0,0213
1593,00;0,0213
1592,00;0,0212
1591,00;0,0212
1590,00;0,0212
1589,00;0,0211
1588,00;0,0211
1587,00;0,0210
1586,00;0,0210
1585,00;0,0210
1584,00;0,0209
1583,00;0,0209
1582,00;0,0209
1581,00;0,0208
1580,00;0,0208
1579,00;0,0208
1578,00;0,0208
1577,00;0,0208
1576,00;0,0207
1575,00;0,0207
1574,00;0,0207
1573,00;0,0207
1572,00;0,0206
1571,00;0,0206
1570,00;0,0206
1569,00;0,0206
1568,00;0,0206
1567,00;0,0206
1566,00;0,0206
1565,00;0,0206
1564,00;0,0206
1563,00;0,0205
1562,00;0,0205
1561,00;0,0204
1560,00;0,0204
1559,00;0,0204
1558,00;0,0204
1557,00;0,0204
1556,00;0,0204
1555,00;0,0204
1554,00;0,0204
1553,00;0,0204
1552,00;0,0204
1551,00;0,0204
1550,00;0,0203
1549,00;0,0203
1548,00;0,0203
1547,00;0,0203
1546,00;0,0203
1545,00;0,0202
1544,00;0,0202
1543,00;0,0201
1542,00;0,0201
1541,00;0,0201
1540,00;0,0200
1539,00;0,0200
1538,00;0,0200
1537,00;0,0200
1536,00;0,0199
1535,00;0,0199
1534,00;0,0199
1533,00;0,0198
1532,00;0,0198
1531,00;0,0197
1530,00;0,0197
1529,00;0,0197
1528,00;0,0196
1527,00;0,0196
1526,00;0,0195
1525,00;0,0195
1524,00;0,0195
1523,00;0,0194
1522,00;0,0194
1521,00;0,0194
1520,00;0,0193
1519,00;0,0193
1518,00;0,0193
1517,00;0,0192
1516,00;0,0192
1515,00;0,0191
1514,00;0,0191
1513,00;0,0191
1512,00;0,0191
1511,00;0,0190
1510,00;0,0190
1509,00;0,0190
1508,00;0,0190
1507,00;0,0189
1506,00;0,0189
1505,00;0,0188
1504,00;0,0188
1503,00;0,0188
1502,00;0,0188
1501,00;0,0188
1500,00;0,0187
1499,00;0,0187
1498,00;0,0186
1497,00;0,0186
1496,00;0,0186
1495,00;0,0186
1494,00;0,0186
1493,00;0,0186
1492,00;0,0185
1491,00;0,0185
1490,00;0,0185
1489,00;0,0184
1488,00;0,0184
1487,00;0,0184
1486,00;0,0184
1485,00;0,0184
1484,00;0,0184
1483,00;0,0184
1482,00;0,0183
1481,00;0,0183
1480,00;0,0183
1479,00;0,0183
1478,00;0,0183
1477,00;0,0183
1476,00;0,0182
1475,00;0,0182
1474,00;0,0182
1473,00;0,0182
1472,00;0,0181
1471,00;0,0181
1470,00;0,0181
1469,00;0,0181
1468,00;0,0181
1467,00;0,0181
1466,00;0,0181
1465,00;0,0181
1464,00;0,0182
1463,00;0,0182
1462,00;0,0182
1461,00;0,0182
1460,00;0,0182
1459,00;0,0183
1458,00;0,0183
1457,00;0,0183
1456,00;0,0183
1455,00;0,0183
1454,00;0,0184
1453,00;0,0184
1452,00;0,0184
1451,00;0,0184
1450,00;0,0184
1449,00;0,0185
1448,00;0,0185
1447,00;0,0185
1446,00;0,0185
1445,00;0,0185
1444,00;0,0185
1443,00;0,0185
1442,00;0,0185
1441,00;0,0185
1440,00;0,0184
1439,00;0,0184
1438,00;0,0184
1437,00;0,0184
1436,00;0,0184
1435,00;0,0183
1434,00;0,0183
1433,00;0,0183
1432,00;0,0183
1431,00;0,0183
1430,00;0,0183
1429,00;0,0183
1428,00;0,0183
1427,00;0,0183
1426,00;0,0183
1425,00;0,0182
1424,00;0,0182
1423,00;0,0182
1422,00;0,0182
1421,00;0,0181
1420,00;0,0181
1419,00;0,0181
1418,00;0,0181
1417,00;0,0181
1416,00;0,0181
1415,00;0,0181
1414,00;0,0181
1413,00;0,0181
1412,00;0,0180
1411,00;0,0180
1410,00;0,0180
1409,00;0,0180
1408,00;0,0180
1407,00;0,0179
1406,00;0,0179
1405,00;0,0179
1404,00;0,0179
1403,00;0,0178
1402,00;0,0178
1401,00;0,0178
1400,00;0,0178
1399,00;0,0177
1398,00;0,0177
1397,00;0,0177
1396,00;0,0177
1395,00;0,0177
1394,00;0,0177
1393,00;0,0176
1392,00;0,0176
1391,00;0,0176
1390,00;0,0175
1389,00;0,0175
1388,00;0,0175
1387,00;0,0175
1386,00;0,0174
1385,00;0,0174
1384,00;0,0174
1383,00;0,0173
1382,00;0,0173
1381,00;0,0173
1380,00;0,0173
1379,00;0,0172
1378,00;0,0172
1377,00;0,0172
1376,00;0,0172
1375,00;0,0171
1374,00;0,0171
1373,00;0,0170
1372,00;0,0170
1371,00;0,0170
1370,00;0,0169
1369,00;0,0169
1368,00;0,0169
1367,00;0,0169
1366,00;0,0169
1365,00;0,0168
1364,00;0,0168
1363,00;0,0168
1362,00;0,0167
1361,00;0,0167
1360,00;0,0167
1359,00;0,0166
1358,00;0,0166
1357,00;0,0166
1356,00;0,0166
1355,00;0,0166
1354,00;0,0165
1353,00;0,0165
1352,00;0,0165
1351,00;0,0165
1350,00;0,0164
1349,00;0,0164
1348,00;0,0164
1347,00;0,0164
1346,00;0,0164
1345,00;0,0164
1344,00;0,0164
1343,00;0,0164
1342,00;0,0164
1341,00;0,0164
1340,00;0,0163
1339,00;0,0163
1338,00;0,0163
1337,00;0,0163
1336,00;0,0163
1335,00;0,0163
1334,00;0,0163
1333,00;0,0163
1332,00;0,0162
1331,00;0,0162
1330,00;0,0162
1329,00;0,0162
1328,00;0,0162
1327,00;0,0162
1326,00;0,0162
1325,00;0,0162
1324,00;0,0162
1323,00;0,0162
1322,00;0,0162
1321,00;0,0162
1320,00;0,0162
1319,00;0,0162
1318,00;0,0162
1317,00;0,0162
1316,00;0,0162
1315,00;0,0162
1314,00;0,0162
1313,00;0,0162
1312,00;0,0162
1311,00;0,0162
1310,00;0,0162
1309,00;0,0162
1308,00;0,0162
1307,00;0,0162
1306,00;0,0162
1305,00;0,0162
1304,00;0,0162
1303,00;0,0162
1302,00;0,0162
1301,00;0,0162
1300,00;0,0162
1299,00;0,0162
1298,00;0,0162
1297,00;0,0163
1296,00;0,0163
1295,00;0,0163
1294,00;0,0163
1293,00;0,0164
1292,00;0,0164
1291,00;0,0164
1290,00;0,0164
1289,00;0,0164
1288,00;0,0164
1287,00;0,0165
1286,00;0,0165
1285,00;0,0165
1284,00;0,0166
1283,00;0,0167
1282,00;0,0167
1281,00;0,0168
1280,00;0,0168
1279,00;0,0169
1278,00;0,0170
1277,00;0,0171
1276,00;0,0171
1275,00;0,0172
1274,00;0,0173
1273,00;0,0173
1272,00;0,0174
1271,00;0,0175
1270,00;0,0176
1269,00;0,0177
1268,00;0,0179
1267,00;0,0180
1266,00;0,0181
1265,00;0,0183
1264,00;0,0184
1263,00;0,0186
1262,00;0,0188
1261,00;0,0190
1260,00;0,0192
1259,00;0,0194
1258,00;0,0195
1257,00;0,0197
1256,00;0,0199
1255,00;0,0201
1254,00;0,0203
1253,00;0,0206
1252,00;0,0208
1251,00;0,0210
1250,00;0,0212
1249,00;0,0215
1248,00;0,0217
1247,00;0,0220
1246,00;0,0222
1245,00;0,0225
1244,00;0,0228
1243,00;0,0231
1242,00;0,0234
1241,00;0,0237
1240,00;0,0240
1239,00;0,0243
1238,00;0,0246
1237,00;0,0250
1236,00;0,0253
1235,00;0,0256
1234,00;0,0260
1233,00;0,0263
1232,00;0,0266
1231,00;0,0269
1230,00;0,0273
1229,00;0,0276
1228,00;0,0280
1227,00;0,0284
1226,00;0,0287
1225,00;0,0291
1224,00;0,0294
1223,00;0,0298
1222,00;0,0301
1221,00;0,0305
1220,00;0,0308
1219,00;0,0312
1218,00;0,0315
1217,00;0,0318
1216,00;0,0320
1215,00;0,0323
1214,00;0,0325
1213,00;0,0328
1212,00;0,0330
1211,00;0,0333
1210,00;0,0335
1209,00;0,0337
1208,00;0,0339
1207,00;0,0341
1206,00;0,0342
1205,00;0,0344
1204,00;0,0346
1203,00;0,0347
1202,00;0,0349
1201,00;0,0350
1200,00;0,0351
1199,00;0,0352
1198,00;0,0353
1197,00;0,0354
1196,00;0,0355
1195,00;0,0356
1194,00;0,0356
1193,00;0,0357
1192,00;0,0358
1191,00;0,0358
1190,00;0,0359
1189,00;0,0359
1188,00;0,0360
1187,00;0,0360
1186,00;0,0361
1185,00;0,0361
1184,00;0,0362
1183,00;0,0362
1182,00;0,0363
1181,00;0,0364
1180,00;0,0364
1179,00;0,0365
1178,00;0,0366
1177,00;0,0366
1176,00;0,0367
1175,00;0,0367
1174,00;0,0367
1173,00;0,0368
1172,00;0,0369
1171,00;0,0370
1170,00;0,0371
1169,00;0,0372
1168,00;0,0373
1167,00;0,0374
1166,00;0,0375
1165,00;0,0377
1164,00;0,0378
1163,00;0,0380
1162,00;0,0381
1161,00;0,0383
1160,00;0,0385
1159,00;0,0387
1158,00;0,0389
1157,00;0,0392
1156,00;0,0394
1155,00;0,0396
1154,00;0,0398
1153,00;0,0401
1152,00;0,0403
1151,00;0,0405
1150,00;0,0407
1149,00;0,0410
1148,00;0,0413
1147,00;0,0415
1146,00;0,0418
1145,00;0,0420
1144,00;0,0422
1143,00;0,0425
1142,00;0,0427
1141,00;0,0429
1140,00;0,0431
1139,00;0,0433
1138,00;0,0435
1137,00;0,0437
1136,00;0,0439
1135,00;0,0440
1134,00;0,0441
1133,00;0,0442
1132,00;0,0443
1131,00;0,0444
1130,00;0,0444
1129,00;0,0444
1128,00;0,0444
1127,00;0,0444
1126,00;0,0444
1125,00;0,0444
1124,00;0,0444
1123,00;0,0443
1122,00;0,0443
1121,00;0,0442
1120,00;0,0442
1119,00;0,0441
1118,00;0,0441
1117,00;0,0441
1116,00;0,0441
1115,00;0,0440
1114,00;0,0440
1113,00;0,0439
1112,00;0,0438
1111,00;0,0438
1110,00;0,0438
1109,00;0,0437
1108,00;0,0437
1107,00;0,0436
1106,00;0,0435
1105,00;0,0434
1104,00;0,0434
1103,00;0,0433
1102,00;0,0433
1101,00;0,0433
1100,00;0,0433
1099,00;0,0432
1098,00;0,0432
1097,00;0,0432
1096,00;0,0432
1095,00;0,0432
1094,00;0,0432
1093,00;0,0431
1092,00;0,0431
1091,00;0,0431
1090,00;0,0431
1089,00;0,0431
1088,00;0,0431
1087,00;0,0431
1086,00;0,0431
1085,00;0,0431
1084,00;0,0431
1083,00;0,0432
1082,00;0,0432
1081,00;0,0432
1080,00;0,0433
1079,00;0,0433
1078,00;0,0433
1077,00;0,0433
1076,00;0,0433
1075,00;0,0433
1074,00;0,0433
1073,00;0,0433
1072,00;0,0433
1071,00;0,0433
1070,00;0,0433
1069,00;0,0433
1068,00;0,0434
1067,00;0,0434
1066,00;0,0434
1065,00;0,0433
1064,00;0,0433
1063,00;0,0432
1062,00;0,0432
1061,00;0,0431
1060,00;0,0431
1059,00;0,0431
1058,00;0,0432
1057,00;0,0432
1056,00;0,0431
1055,00;0,0431
1054,00;0,0430
1053,00;0,0430
1052,00;0,0430
1051,00;0,0430
1050,00;0,0430
1049,00;0,0430
1048,00;0,0430
1047,00;0,0429
1046,00;0,0428
1045,00;0,0427
1044,00;0,0426
1043,00;0,0424
1042,00;0,0422
1041,00;0,0420
1040,00;0,0418
1039,00;0,0416
1038,00;0,0413
1037,00;0,0410
1036,00;0,0407
1035,00;0,0404
1034,00;0,0400
1033,00;0,0396
1032,00;0,0393
1031,00;0,0390
1030,00;0,0387
1029,00;0,0384
1028,00;0,0380
1027,00;0,0377
1026,00;0,0374
1025,00;0,0371
1024,00;0,0367
1023,00;0,0364
1022,00;0,0360
1021,00;0,0357
1020,00;0,0354
1019,00;0,0351
1018,00;0,0348
1017,00;0,0346
1016,00;0,0344
1015,00;0,0342
1014,00;0,0340
1013,00;0,0338
1012,00;0,0336
1011,00;0,0335
1010,00;0,0334
1009,00;0,0332
1008,00;0,0331
1007,00;0,0330
1006,00;0,0330
1005,00;0,0330
1004,00;0,0330
1003,00;0,0331
1002,00;0,0332
1001,00;0,0334
1000,00;0,0335
999,00;0,0336
998,00;0,0335
997,00;0,0333
996,00;0,0331
995,00;0,0327
994,00;0,0324
993,00;0,0320
992,00;0,0317
991,00;0,0314
990,00;0,0311
989,00;0,0308
988,00;0,0305
987,00;0,0302
986,00;0,0299
985,00;0,0296
984,00;0,0294
983,00;0,0292
982,00;0,0289
981,00;0,0287
980,00;0,0285
979,00;0,0283
978,00;0,0280
977,00;0,0278
976,00;0,0275
975,00;0,0273
974,00;0,0270
973,00;0,0268
972,00;0,0266
971,00;0,0263
970,00;0,0261
969,00;0,0259
968,00;0,0257
967,00;0,0255
966,00;0,0252
965,00;0,0250
964,00;0,0248
963,00;0,0246
962,00;0,0244
961,00;0,0243
960,00;0,0241
959,00;0,0240
958,00;0,0237
957,00;0,0235
956,00;0,0234
955,00;0,0232
954,00;0,0230
953,00;0,0229
952,00;0,0227
951,00;0,0225
950,00;0,0223
949,00;0,0222
948,00;0,0221
947,00;0,0219
946,00;0,0218
945,00;0,0216
944,00;0,0214
943,00;0,0213
942,00;0,0212
941,00;0,0211
940,00;0,0210
939,00;0,0208
938,00;0,0207
937,00;0,0206
936,00;0,0205
935,00;0,0204
934,00;0,0203
933,00;0,0201
932,00;0,0200
931,00;0,0198
930,00;0,0197
929,00;0,0196
928,00;0,0195
927,00;0,0194
926,00;0,0193
925,00;0,0191
924,00;0,0190
923,00;0,0190
922,00;0,0190
921,00;0,0189
920,00;0,0188
919,00;0,0187
918,00;0,0186
917,00;0,0185
916,00;0,0184
915,00;0,0184
914,00;0,0183
913,00;0,0182
912,00;0,0181
911,00;0,0181
910,00;0,0180
909,00;0,0180
908,00;0,0179
907,00;0,0178
906,00;0,0177
905,00;0,0177
904,00;0,0176
903,00;0,0176
902,00;0,0175
901,00;0,0175
900,00;0,0174
899,00;0,0174
898,00;0,0174
897,00;0,0174
896,00;0,0173
895,00;0,0172
894,00;0,0172
893,00;0,0171
892,00;0,0171
891,00;0,0171
890,00;0,0171
889,00;0,0172
888,00;0,0172
887,00;0,0171
886,00;0,0171
885,00;0,0171
884,00;0,0171
883,00;0,0171
882,00;0,0171
881,00;0,0171
880,00;0,0171
879,00;0,0170
878,00;0,0170
877,00;0,0169
876,00;0,0169
875,00;0,0168
874,00;0,0168
873,00;0,0168
872,00;0,0167
871,00;0,0166
870,00;0,0166
869,00;0,0165
868,00;0,0165
867,00;0,0165
866,00;0,0165
865,00;0,0164
864,00;0,0164
863,00;0,0163
862,00;0,0163
861,00;0,0163
860,00;0,0163
859,00;0,0163
858,00;0,0162
857,00;0,0162
856,00;0,0162
855,00;0,0162
854,00;0,0163
853,00;0,0163
852,00;0,0162
851,00;0,0162
850,00;0,0162
849,00;0,0162
848,00;0,0162
847,00;0,0162
846,00;0,0162
845,00;0,0162
844,00;0,0162
843,00;0,0161
842,00;0,0162
841,00;0,0162
840,00;0,0162
839,00;0,0163
838,00;0,0163
837,00;0,0163
836,00;0,0163
835,00;0,0162
834,00;0,0162
833,00;0,0162
832,00;0,0162
831,00;0,0162
830,00;0,0162
829,00;0,0162
828,00;0,0162
827,00;0,0162
826,00;0,0161
825,00;0,0161
824,00;0,0162
823,00;0,0162
822,00;0,0163
821,00;0,0163
820,00;0,0164
819,00;0,0165
818,00;0,0165
817,00;0,0164
816,00;0,0164
815,00;0,0163
814,00;0,0163
813,00;0,0163
812,00;0,0163
811,00;0,0163
810,00;0,0162
809,00;0,0161
808,00;0,0160
807,00;0,0160
806,00;0,0161
805,00;0,0161
804,00;0,0161
803,00;0,0162
802,00;0,0162
801,00;0,0162
800,00;0,0163
799,00;0,0163
798,00;0,0163
797,00;0,0162
796,00;0,0161
795,00;0,0161
794,00;0,0160
793,00;0,0161
792,00;0,0161
791,00;0,0162
790,00;0,0162
789,00;0,0162
788,00;0,0162
787,00;0,0162
786,00;0,0162
785,00;0,0162
784,00;0,0162
783,00;0,0161
782,00;0,0161
781,00;0,0161
780,00;0,0161
779,00;0,0162
778,00;0,0162
777,00;0,0162
776,00;0,0161
775,00;0,0161
774,00;0,0160
773,00;0,0161
772,00;0,0161
771,00;0,0161
770,00;0,0161
769,00;0,0161
768,00;0,0161
767,00;0,0161
766,00;0,0160
765,00;0,0160
764,00;0,0159
763,00;0,0159
762,00;0,0159
761,00;0,0159
760,00;0,0158
759,00;0,0157
758,00;0,0156
757,00;0,0155
756,00;0,0154
755,00;0,0153
754,00;0,0152
753,00;0,0151
752,00;0,0151
751,00;0,0152
750,00;0,0153
749,00;0,0155
748,00;0,0158
747,00;0,0161
746,00;0,0164
745,00;0,0168
744,00;0,0173
743,00;0,0178
742,00;0,0183
741,00;0,0189
740,00;0,0194
739,00;0,0199
738,00;0,0204
737,00;0,0208
736,00;0,0213
735,00;0,0216
734,00;0,0219
733,00;0,0222
732,00;0,0224
731,00;0,0226
730,00;0,0228
729,00;0,0230
728,00;0,0231
727,00;0,0230
726,00;0,0228
725,00;0,0224
724,00;0,0220
723,00;0,0216
722,00;0,0212
721,00;0,0209
720,00;0,0206
719,00;0,0205
718,00;0,0204
717,00;0,0204
716,00;0,0204
715,00;0,0205
714,00;0,0206
713,00;0,0206
712,00;0,0208
711,00;0,0210
710,00;0,0214
709,00;0,0217
708,00;0,0221
707,00;0,0225
706,00;0,0228
705,00;0,0232
704,00;0,0237
703,00;0,0242
702,00;0,0247
701,00;0,0252
700,00;0,0257
699,00;0,0261
698,00;0,0265
697,00;0,0268
696,00;0,0270
695,00;0,0271
694,00;0,0270
693,00;0,0269
692,00;0,0266
691,00;0,0263
690,00;0,0258
689,00;0,0253
688,00;0,0247
687,00;0,0241
686,00;0,0233
685,00;0,0225
684,00;0,0217
683,00;0,0209
682,00;0,0201
681,00;0,0194
680,00;0,0187
679,00;0,0180
678,00;0,0174
677,00;0,0169
676,00;0,0166
675,00;0,0163
674,00;0,0160
673,00;0,0156
672,00;0,0152
671,00;0,0149
670,00;0,0145
669,00;0,0144
668,00;0,0145
667,00;0,0148
666,00;0,0150
665,00;0,0150
664,00;0,0150
663,00;0,0151
662,00;0,0152
661,00;0,0155
660,00;0,0158
659,00;0,0162
658,00;0,0166
657,00;0,0170
656,00;0,0174
655,00;0,0179
654,00;0,0183
653,00;0,0190
652,00;0,0199
651,00;0,0209
650,00;0,0220
649,00;0,0229
648,00;0,0239
647,00;0,0247
646,00;0,0255
645,00;0,0264
644,00;0,0273
643,00;0,0282
642,00;0,0292
641,00;0,0303
640,00;0,0315
639,00;0,0324
638,00;0,0330
637,00;0,0336
636,00;0,0341
635,00;0,0345
634,00;0,0346
633,00;0,0345
632,00;0,0343
631,00;0,0339
630,00;0,0333
629,00;0,0326
628,00;0,0319
627,00;0,0312
626,00;0,0304
625,00;0,0295
624,00;0,0286
623,00;0,0276
622,00;0,0265
621,00;0,0254
620,00;0,0244
619,00;0,0234
618,00;0,0225
617,00;0,0216
616,00;0,0210
615,00;0,0203
614,00;0,0196
613,00;0,0189
612,00;0,0183
611,00;0,0180
610,00;0,0176
609,00;0,0173
608,00;0,0171
607,00;0,0169
606,00;0,0168
605,00;0,0166
604,00;0,0165
603,00;0,0164
602,00;0,0162
601,00;0,0161
600,00;0,0159
599,00;0,0156
598,00;0,0152
597,00;0,0151
596,00;0,0153
595,00;0,0155
594,00;0,0157
593,00;0,0160
592,00;0,0164
591,00;0,0167
590,00;0,0170
589,00;0,0171
588,00;0,0173
587,00;0,0173
586,00;0,0173
585,00;0,0175
584,00;0,0178
583,00;0,0180
582,00;0,0180
581,00;0,0181
580,00;0,0181
579,00;0,0182
578,00;0,0180
577,00;0,0179
576,00;0,0177
575,00;0,0175
574,00;0,0173
573,00;0,0173
572,00;0,0173
571,00;0,0174
570,00;0,0176
569,00;0,0181
568,00;0,0187
567,00;0,0193
566,00;0,0199
565,00;0,0207
564,00;0,0219
563,00;0,0231
562,00;0,0242
561,00;0,0254
560,00;0,0266
559,00;0,0277
558,00;0,0287
557,00;0,0296
556,00;0,0305
555,00;0,0314
554,00;0,0320
553,00;0,0326
552,00;0,0331
551,00;0,0333
550,00;0,0333
549,00;0,0331
548,00;0,0330
547,00;0,0327
546,00;0,0322
545,00;0,0317
544,00;0,0313
543,00;0,0305
542,00;0,0294
541,00;0,0283
540,00;0,0273
539,00;0,0261
538,00;0,0245
537,00;0,0228
536,00;0,0210
535,00;0,0192
534,00;0,0174
533,00;0,0158
532,00;0,0144
531,00;0,0129
530,00;0,0112
529,00;0,0096
528,00;0,0081
527,00;0,0064
526,00;0,0042
525,00;0,0019
524,00;-0,0004
523,00;-0,0026
522,00;-0,0050
521,00;-0,0074
520,00;-0,0098
519,00;-0,0125
518,00;-0,0152
517,00;-0,0176
516,00;-0,0196
515,00;-0,0217
514,00;-0,0241
513,00;-0,0265
512,00;-0,0288
511,00;-0,0311
510,00;-0,0335
509,00;-0,0358
508,00;-0,0378
507,00;-0,0399
506,00;-0,0421
505,00;-0,0441
504,00;-0,0459
503,00;-0,0477
502,00;-0,0496
501,00;-0,0513
500,00;-0,0527
