Создан как новый массив данных;Образец 011 полученный BalashovM Дата среда, апреля 28 2021
cm-1;A
4000,00;0,0130
3999,00;0,0130
3998,00;0,0130
3997,00;0,0130
3996,00;0,0130
3995,00;0,0130
3994,00;0,0130
3993,00;0,0130
3992,00;0,0130
3991,00;0,0130
3990,00;0,0130
3989,00;0,0130
3988,00;0,0130
3987,00;0,0130
3986,00;0,0130
3985,00;0,0130
3984,00;0,0130
3983,00;0,0130
3982,00;0,0130
3981,00;0,0130
3980,00;0,0130
3979,00;0,0130
3978,00;0,0130
3977,00;0,0130
3976,00;0,0130
3975,00;0,0130
3974,00;0,0130
3973,00;0,0130
3972,00;0,0130
3971,00;0,0130
3970,00;0,0130
3969,00;0,0130
3968,00;0,0130
3967,00;0,0130
3966,00;0,0130
3965,00;0,0130
3964,00;0,0130
3963,00;0,0130
3962,00;0,0130
3961,00;0,0130
3960,00;0,0130
3959,00;0,0130
3958,00;0,0130
3957,00;0,0130
3956,00;0,0130
3955,00;0,0130
3954,00;0,0130
3953,00;0,0130
3952,00;0,0130
3951,00;0,0130
3950,00;0,0130
3949,00;0,0130
3948,00;0,0130
3947,00;0,0130
3946,00;0,0130
3945,00;0,0130
3944,00;0,0130
3943,00;0,0130
3942,00;0,0130
3941,00;0,0130
3940,00;0,0130
3939,00;0,0130
3938,00;0,0130
3937,00;0,0131
3936,00;0,0131
3935,00;0,0131
3934,00;0,0131
3933,00;0,0131
3932,00;0,0131
3931,00;0,0131
3930,00;0,0131
3929,00;0,0131
3928,00;0,0131
3927,00;0,0131
3926,00;0,0131
3925,00;0,0131
3924,00;0,0131
3923,00;0,0131
3922,00;0,0131
3921,00;0,0131
3920,00;0,0131
3919,00;0,0131
3918,00;0,0131
3917,00;0,0131
3916,00;0,0131
3915,00;0,0131
3914,00;0,0131
3913,00;0,0131
3912,00;0,0131
3911,00;0,0131
3910,00;0,0131
3909,00;0,0131
3908,00;0,0131
3907,00;0,0131
3906,00;0,0131
3905,00;0,0131
3904,00;0,0131
3903,00;0,0131
3902,00;0,0131
3901,00;0,0131
3900,00;0,0131
3899,00;0,0131
3898,00;0,0131
3897,00;0,0131
3896,00;0,0131
3895,00;0,0131
3894,00;0,0131
3893,00;0,0131
3892,00;0,0131
3891,00;0,0131
3890,00;0,0131
3889,00;0,0131
3888,00;0,0131
3887,00;0,0131
3886,00;0,0131
3885,00;0,0131
3884,00;0,0131
3883,00;0,0131
3882,00;0,0131
3881,00;0,0131
3880,00;0,0131
3879,00;0,0131
3878,00;0,0131
3877,00;0,0131
3876,00;0,0131
3875,00;0,0131
3874,00;0,0131
3873,00;0,0131
3872,00;0,0131
3871,00;0,0131
3870,00;0,0131
3869,00;0,0131
3868,00;0,0131
3867,00;0,0131
3866,00;0,0131
3865,00;0,0131
3864,00;0,0131
3863,00;0,0131
3862,00;0,0131
3861,00;0,0131
3860,00;0,0131
3859,00;0,0131
3858,00;0,0131
3857,00;0,0131
3856,00;0,0131
3855,00;0,0131
3854,00;0,0131
3853,00;0,0131
3852,00;0,0131
3851,00;0,0131
3850,00;0,0131
3849,00;0,0131
3848,00;0,0131
3847,00;0,0131
3846,00;0,0131
3845,00;0,0131
3844,00;0,0131
3843,00;0,0131
3842,00;0,0131
3841,00;0,0131
3840,00;0,0131
3839,00;0,0131
3838,00;0,0131
3837,00;0,0131
3836,00;0,0131
3835,00;0,0131
3834,00;0,0131
3833,00;0,0131
3832,00;0,0131
3831,00;0,0131
3830,00;0,0131
3829,00;0,0131
3828,00;0,0131
3827,00;0,0131
3826,00;0,0131
3825,00;0,0131
3824,00;0,0131
3823,00;0,0131
3822,00;0,0131
3821,00;0,0131
3820,00;0,0131
3819,00;0,0130
3818,00;0,0130
3817,00;0,0130
3816,00;0,0130
3815,00;0,0130
3814,00;0,0130
3813,00;0,0130
3812,00;0,0130
3811,00;0,0130
3810,00;0,0130
3809,00;0,0130
3808,00;0,0130
3807,00;0,0130
3806,00;0,0130
3805,00;0,0130
3804,00;0,0130
3803,00;0,0130
3802,00;0,0130
3801,00;0,0130
3800,00;0,0130
3799,00;0,0130
3798,00;0,0130
3797,00;0,0130
3796,00;0,0130
3795,00;0,0130
3794,00;0,0130
3793,00;0,0130
3792,00;0,0130
3791,00;0,0130
3790,00;0,0130
3789,00;0,0130
3788,00;0,0130
3787,00;0,0130
3786,00;0,0130
3785,00;0,0130
3784,00;0,0130
3783,00;0,0130
3782,00;0,0130
3781,00;0,0130
3780,00;0,0130
3779,00;0,0130
3778,00;0,0130
3777,00;0,0130
3776,00;0,0130
3775,00;0,0130
3774,00;0,0130
3773,00;0,0130
3772,00;0,0130
3771,00;0,0130
3770,00;0,0130
3769,00;0,0130
3768,00;0,0130
3767,00;0,0130
3766,00;0,0130
3765,00;0,0130
3764,00;0,0130
3763,00;0,0130
3762,00;0,0130
3761,00;0,0131
3760,00;0,0130
3759,00;0,0130
3758,00;0,0130
3757,00;0,0130
3756,00;0,0130
3755,00;0,0130
3754,00;0,0131
3753,00;0,0131
3752,00;0,0131
3751,00;0,0131
3750,00;0,0131
3749,00;0,0131
3748,00;0,0131
3747,00;0,0131
3746,00;0,0131
3745,00;0,0131
3744,00;0,0131
3743,00;0,0131
3742,00;0,0131
3741,00;0,0131
3740,00;0,0131
3739,00;0,0131
3738,00;0,0131
3737,00;0,0131
3736,00;0,0131
3735,00;0,0131
3734,00;0,0131
3733,00;0,0131
3732,00;0,0131
3731,00;0,0131
3730,00;0,0131
3729,00;0,0131
3728,00;0,0131
3727,00;0,0131
3726,00;0,0131
3725,00;0,0131
3724,00;0,0130
3723,00;0,0130
3722,00;0,0130
3721,00;0,0130
3720,00;0,0130
3719,00;0,0130
3718,00;0,0131
3717,00;0,0131
3716,00;0,0131
3715,00;0,0131
3714,00;0,0131
3713,00;0,0131
3712,00;0,0131
3711,00;0,0131
3710,00;0,0131
3709,00;0,0131
3708,00;0,0131
3707,00;0,0131
3706,00;0,0131
3705,00;0,0131
3704,00;0,0131
3703,00;0,0132
3702,00;0,0132
3701,00;0,0132
3700,00;0,0132
3699,00;0,0132
3698,00;0,0132
3697,00;0,0132
3696,00;0,0132
3695,00;0,0133
3694,00;0,0133
3693,00;0,0133
3692,00;0,0133
3691,00;0,0134
3690,00;0,0134
3689,00;0,0134
3688,00;0,0133
3687,00;0,0133
3686,00;0,0133
3685,00;0,0133
3684,00;0,0133
3683,00;0,0133
3682,00;0,0133
3681,00;0,0133
3680,00;0,0133
3679,00;0,0133
3678,00;0,0133
3677,00;0,0133
3676,00;0,0133
3675,00;0,0133
3674,00;0,0133
3673,00;0,0133
3672,00;0,0133
3671,00;0,0133
3670,00;0,0133
3669,00;0,0133
3668,00;0,0133
3667,00;0,0133
3666,00;0,0133
3665,00;0,0133
3664,00;0,0133
3663,00;0,0133
3662,00;0,0133
3661,00;0,0133
3660,00;0,0133
3659,00;0,0133
3658,00;0,0133
3657,00;0,0133
3656,00;0,0134
3655,00;0,0134
3654,00;0,0134
3653,00;0,0134
3652,00;0,0134
3651,00;0,0134
3650,00;0,0134
3649,00;0,0134
3648,00;0,0134
3647,00;0,0134
3646,00;0,0134
3645,00;0,0134
3644,00;0,0134
3643,00;0,0134
3642,00;0,0134
3641,00;0,0135
3640,00;0,0135
3639,00;0,0135
3638,00;0,0135
3637,00;0,0135
3636,00;0,0135
3635,00;0,0135
3634,00;0,0136
3633,00;0,0136
3632,00;0,0136
3631,00;0,0136
3630,00;0,0136
3629,00;0,0136
3628,00;0,0136
3627,00;0,0136
3626,00;0,0137
3625,00;0,0137
3624,00;0,0137
3623,00;0,0137
3622,00;0,0137
3621,00;0,0137
3620,00;0,0137
3619,00;0,0138
3618,00;0,0138
3617,00;0,0138
3616,00;0,0138
3615,00;0,0138
3614,00;0,0139
3613,00;0,0139
3612,00;0,0139
3611,00;0,0139
3610,00;0,0139
3609,00;0,0140
3608,00;0,0140
3607,00;0,0140
3606,00;0,0140
3605,00;0,0141
3604,00;0,0141
3603,00;0,0141
3602,00;0,0141
3601,00;0,0141
3600,00;0,0141
3599,00;0,0142
3598,00;0,0142
3597,00;0,0142
3596,00;0,0143
3595,00;0,0143
3594,00;0,0143
3593,00;0,0144
3592,00;0,0144
3591,00;0,0144
3590,00;0,0144
3589,00;0,0144
3588,00;0,0145
3587,00;0,0145
3586,00;0,0145
3585,00;0,0145
3584,00;0,0145
3583,00;0,0146
3582,00;0,0146
3581,00;0,0146
3580,00;0,0146
3579,00;0,0146
3578,00;0,0147
3577,00;0,0147
3576,00;0,0147
3575,00;0,0147
3574,00;0,0148
3573,00;0,0148
3572,00;0,0148
3571,00;0,0148
3570,00;0,0149
3569,00;0,0149
3568,00;0,0149
3567,00;0,0149
3566,00;0,0150
3565,00;0,0150
3564,00;0,0150
3563,00;0,0150
3562,00;0,0151
3561,00;0,0151
3560,00;0,0151
3559,00;0,0151
3558,00;0,0152
3557,00;0,0152
3556,00;0,0152
3555,00;0,0152
3554,00;0,0153
3553,00;0,0153
3552,00;0,0153
3551,00;0,0153
3550,00;0,0154
3549,00;0,0154
3548,00;0,0154
3547,00;0,0154
3546,00;0,0155
3545,00;0,0155
3544,00;0,0155
3543,00;0,0155
3542,00;0,0155
3541,00;0,0156
3540,00;0,0156
3539,00;0,0156
3538,00;0,0157
3537,00;0,0157
3536,00;0,0157
3535,00;0,0157
3534,00;0,0157
3533,00;0,0158
3532,00;0,0158
3531,00;0,0158
3530,00;0,0158
3529,00;0,0159
3528,00;0,0159
3527,00;0,0159
3526,00;0,0159
3525,00;0,0160
3524,00;0,0160
3523,00;0,0160
3522,00;0,0160
3521,00;0,0161
3520,00;0,0161
3519,00;0,0161
3518,00;0,0161
3517,00;0,0161
3516,00;0,0162
3515,00;0,0162
3514,00;0,0162
3513,00;0,0162
3512,00;0,0163
3511,00;0,0163
3510,00;0,0163
3509,00;0,0163
3508,00;0,0163
3507,00;0,0164
3506,00;0,0164
3505,00;0,0164
3504,00;0,0164
3503,00;0,0164
3502,00;0,0165
3501,00;0,0165
3500,00;0,0165
3499,00;0,0165
3498,00;0,0165
3497,00;0,0165
3496,00;0,0166
3495,00;0,0166
3494,00;0,0166
3493,00;0,0166
3492,00;0,0166
3491,00;0,0166
3490,00;0,0167
3489,00;0,0167
3488,00;0,0167
3487,00;0,0167
3486,00;0,0168
3485,00;0,0168
3484,00;0,0168
3483,00;0,0168
3482,00;0,0168
3481,00;0,0168
3480,00;0,0168
3479,00;0,0168
3478,00;0,0169
3477,00;0,0169
3476,00;0,0169
3475,00;0,0169
3474,00;0,0169
3473,00;0,0169
3472,00;0,0169
3471,00;0,0170
3470,00;0,0170
3469,00;0,0170
3468,00;0,0170
3467,00;0,0170
3466,00;0,0170
3465,00;0,0170
3464,00;0,0171
3463,00;0,0171
3462,00;0,0171
3461,00;0,0171
3460,00;0,0171
3459,00;0,0171
3458,00;0,0171
3457,00;0,0171
3456,00;0,0171
3455,00;0,0171
3454,00;0,0172
3453,00;0,0172
3452,00;0,0172
3451,00;0,0172
3450,00;0,0172
3449,00;0,0172
3448,00;0,0172
3447,00;0,0172
3446,00;0,0172
3445,00;0,0172
3444,00;0,0173
3443,00;0,0173
3442,00;0,0173
3441,00;0,0173
3440,00;0,0173
3439,00;0,0173
3438,00;0,0173
3437,00;0,0173
3436,00;0,0173
3435,00;0,0173
3434,00;0,0174
3433,00;0,0174
3432,00;0,0174
3431,00;0,0174
3430,00;0,0174
3429,00;0,0174
3428,00;0,0174
3427,00;0,0174
3426,00;0,0175
3425,00;0,0175
3424,00;0,0175
3423,00;0,0175
3422,00;0,0175
3421,00;0,0175
3420,00;0,0175
3419,00;0,0175
3418,00;0,0175
3417,00;0,0175
3416,00;0,0175
3415,00;0,0175
3414,00;0,0175
3413,00;0,0175
3412,00;0,0175
3411,00;0,0175
3410,00;0,0175
3409,00;0,0175
3408,00;0,0175
3407,00;0,0175
3406,00;0,0175
3405,00;0,0176
3404,00;0,0176
3403,00;0,0176
3402,00;0,0176
3401,00;0,0176
3400,00;0,0176
3399,00;0,0176
3398,00;0,0176
3397,00;0,0176
3396,00;0,0176
3395,00;0,0176
3394,00;0,0176
3393,00;0,0176
3392,00;0,0176
3391,00;0,0176
3390,00;0,0176
3389,00;0,0176
3388,00;0,0176
3387,00;0,0176
3386,00;0,0176
3385,00;0,0176
3384,00;0,0176
3383,00;0,0176
3382,00;0,0176
3381,00;0,0176
3380,00;0,0176
3379,00;0,0176
3378,00;0,0176
3377,00;0,0176
3376,00;0,0176
3375,00;0,0176
3374,00;0,0176
3373,00;0,0176
3372,00;0,0176
3371,00;0,0176
3370,00;0,0176
3369,00;0,0176
3368,00;0,0176
3367,00;0,0176
3366,00;0,0176
3365,00;0,0177
3364,00;0,0177
3363,00;0,0177
3362,00;0,0177
3361,00;0,0177
3360,00;0,0177
3359,00;0,0177
3358,00;0,0177
3357,00;0,0177
3356,00;0,0177
3355,00;0,0177
3354,00;0,0177
3353,00;0,0177
3352,00;0,0177
3351,00;0,0177
3350,00;0,0177
3349,00;0,0177
3348,00;0,0177
3347,00;0,0177
3346,00;0,0177
3345,00;0,0177
3344,00;0,0177
3343,00;0,0177
3342,00;0,0177
3341,00;0,0177
3340,00;0,0177
3339,00;0,0177
3338,00;0,0177
3337,00;0,0177
3336,00;0,0177
3335,00;0,0177
3334,00;0,0177
3333,00;0,0177
3332,00;0,0177
3331,00;0,0177
3330,00;0,0177
3329,00;0,0177
3328,00;0,0177
3327,00;0,0177
3326,00;0,0177
3325,00;0,0177
3324,00;0,0177
3323,00;0,0177
3322,00;0,0177
3321,00;0,0177
3320,00;0,0177
3319,00;0,0177
3318,00;0,0177
3317,00;0,0177
3316,00;0,0177
3315,00;0,0177
3314,00;0,0177
3313,00;0,0177
3312,00;0,0177
3311,00;0,0177
3310,00;0,0177
3309,00;0,0177
3308,00;0,0177
3307,00;0,0177
3306,00;0,0177
3305,00;0,0177
3304,00;0,0177
3303,00;0,0177
3302,00;0,0177
3301,00;0,0177
3300,00;0,0177
3299,00;0,0177
3298,00;0,0177
3297,00;0,0177
3296,00;0,0177
3295,00;0,0177
3294,00;0,0177
3293,00;0,0177
3292,00;0,0177
3291,00;0,0177
3290,00;0,0177
3289,00;0,0177
3288,00;0,0177
3287,00;0,0177
3286,00;0,0177
3285,00;0,0177
3284,00;0,0177
3283,00;0,0177
3282,00;0,0177
3281,00;0,0177
3280,00;0,0177
3279,00;0,0177
3278,00;0,0177
3277,00;0,0177
3276,00;0,0177
3275,00;0,0177
3274,00;0,0177
3273,00;0,0177
3272,00;0,0177
3271,00;0,0177
3270,00;0,0177
3269,00;0,0177
3268,00;0,0177
3267,00;0,0177
3266,00;0,0177
3265,00;0,0177
3264,00;0,0177
3263,00;0,0177
3262,00;0,0177
3261,00;0,0177
3260,00;0,0177
3259,00;0,0177
3258,00;0,0177
3257,00;0,0177
3256,00;0,0177
3255,00;0,0177
3254,00;0,0177
3253,00;0,0177
3252,00;0,0177
3251,00;0,0177
3250,00;0,0177
3249,00;0,0177
3248,00;0,0177
3247,00;0,0177
3246,00;0,0177
3245,00;0,0177
3244,00;0,0177
3243,00;0,0177
3242,00;0,0177
3241,00;0,0177
3240,00;0,0177
3239,00;0,0177
3238,00;0,0177
3237,00;0,0177
3236,00;0,0177
3235,00;0,0177
3234,00;0,0176
3233,00;0,0176
3232,00;0,0176
3231,00;0,0176
3230,00;0,0176
3229,00;0,0176
3228,00;0,0176
3227,00;0,0176
3226,00;0,0176
3225,00;0,0176
3224,00;0,0176
3223,00;0,0176
3222,00;0,0176
3221,00;0,0176
3220,00;0,0176
3219,00;0,0176
3218,00;0,0176
3217,00;0,0176
3216,00;0,0176
3215,00;0,0176
3214,00;0,0176
3213,00;0,0176
3212,00;0,0176
3211,00;0,0176
3210,00;0,0176
3209,00;0,0176
3208,00;0,0176
3207,00;0,0176
3206,00;0,0176
3205,00;0,0176
3204,00;0,0176
3203,00;0,0176
3202,00;0,0176
3201,00;0,0176
3200,00;0,0176
3199,00;0,0176
3198,00;0,0176
3197,00;0,0176
3196,00;0,0176
3195,00;0,0176
3194,00;0,0176
3193,00;0,0176
3192,00;0,0176
3191,00;0,0176
3190,00;0,0176
3189,00;0,0176
3188,00;0,0176
3187,00;0,0176
3186,00;0,0176
3185,00;0,0176
3184,00;0,0176
3183,00;0,0176
3182,00;0,0175
3181,00;0,0175
3180,00;0,0175
3179,00;0,0175
3178,00;0,0175
3177,00;0,0175
3176,00;0,0175
3175,00;0,0175
3174,00;0,0175
3173,00;0,0175
3172,00;0,0175
3171,00;0,0175
3170,00;0,0175
3169,00;0,0175
3168,00;0,0175
3167,00;0,0175
3166,00;0,0175
3165,00;0,0175
3164,00;0,0175
3163,00;0,0175
3162,00;0,0175
3161,00;0,0175
3160,00;0,0175
3159,00;0,0175
3158,00;0,0175
3157,00;0,0175
3156,00;0,0175
3155,00;0,0175
3154,00;0,0175
3153,00;0,0175
3152,00;0,0175
3151,00;0,0174
3150,00;0,0174
3149,00;0,0174
3148,00;0,0174
3147,00;0,0174
3146,00;0,0174
3145,00;0,0174
3144,00;0,0174
3143,00;0,0174
3142,00;0,0174
3141,00;0,0174
3140,00;0,0174
3139,00;0,0174
3138,00;0,0174
3137,00;0,0174
3136,00;0,0174
3135,00;0,0174
3134,00;0,0174
3133,00;0,0174
3132,00;0,0174
3131,00;0,0174
3130,00;0,0174
3129,00;0,0174
3128,00;0,0174
3127,00;0,0174
3126,00;0,0174
3125,00;0,0174
3124,00;0,0174
3123,00;0,0174
3122,00;0,0173
3121,00;0,0173
3120,00;0,0173
3119,00;0,0173
3118,00;0,0173
3117,00;0,0173
3116,00;0,0173
3115,00;0,0173
3114,00;0,0173
3113,00;0,0173
3112,00;0,0173
3111,00;0,0173
3110,00;0,0173
3109,00;0,0173
3108,00;0,0173
3107,00;0,0173
3106,00;0,0173
3105,00;0,0173
3104,00;0,0173
3103,00;0,0173
3102,00;0,0173
3101,00;0,0173
3100,00;0,0173
3099,00;0,0173
3098,00;0,0173
3097,00;0,0173
3096,00;0,0173
3095,00;0,0173
3094,00;0,0173
3093,00;0,0173
3092,00;0,0173
3091,00;0,0172
3090,00;0,0172
3089,00;0,0172
3088,00;0,0172
3087,00;0,0172
3086,00;0,0172
3085,00;0,0172
3084,00;0,0172
3083,00;0,0172
3082,00;0,0172
3081,00;0,0172
3080,00;0,0172
3079,00;0,0172
3078,00;0,0172
3077,00;0,0172
3076,00;0,0172
3075,00;0,0172
3074,00;0,0172
3073,00;0,0172
3072,00;0,0172
3071,00;0,0172
3070,00;0,0172
3069,00;0,0172
3068,00;0,0172
3067,00;0,0172
3066,00;0,0171
3065,00;0,0171
3064,00;0,0171
3063,00;0,0171
3062,00;0,0171
3061,00;0,0171
3060,00;0,0171
3059,00;0,0171
3058,00;0,0171
3057,00;0,0171
3056,00;0,0171
3055,00;0,0171
3054,00;0,0171
3053,00;0,0171
3052,00;0,0171
3051,00;0,0171
3050,00;0,0171
3049,00;0,0171
3048,00;0,0171
3047,00;0,0171
3046,00;0,0171
3045,00;0,0171
3044,00;0,0171
3043,00;0,0171
3042,00;0,0171
3041,00;0,0171
3040,00;0,0171
3039,00;0,0171
3038,00;0,0171
3037,00;0,0171
3036,00;0,0171
3035,00;0,0171
3034,00;0,0171
3033,00;0,0171
3032,00;0,0171
3031,00;0,0171
3030,00;0,0171
3029,00;0,0171
3028,00;0,0171
3027,00;0,0171
3026,00;0,0171
3025,00;0,0171
3024,00;0,0171
3023,00;0,0171
3022,00;0,0171
3021,00;0,0171
3020,00;0,0171
3019,00;0,0171
3018,00;0,0171
3017,00;0,0171
3016,00;0,0171
3015,00;0,0171
3014,00;0,0171
3013,00;0,0171
3012,00;0,0171
3011,00;0,0171
3010,00;0,0171
3009,00;0,0171
3008,00;0,0171
3007,00;0,0172
3006,00;0,0172
3005,00;0,0172
3004,00;0,0172
3003,00;0,0172
3002,00;0,0172
3001,00;0,0172
3000,00;0,0172
2999,00;0,0172
2998,00;0,0172
2997,00;0,0172
2996,00;0,0172
2995,00;0,0172
2994,00;0,0173
2993,00;0,0173
2992,00;0,0173
2991,00;0,0173
2990,00;0,0173
2989,00;0,0173
2988,00;0,0173
2987,00;0,0173
2986,00;0,0172
2985,00;0,0172
2984,00;0,0172
2983,00;0,0172
2982,00;0,0172
2981,00;0,0172
2980,00;0,0172
2979,00;0,0172
2978,00;0,0172
2977,00;0,0172
2976,00;0,0172
2975,00;0,0172
2974,00;0,0172
2973,00;0,0172
2972,00;0,0172
2971,00;0,0172
2970,00;0,0171
2969,00;0,0171
2968,00;0,0171
2967,00;0,0171
2966,00;0,0171
2965,00;0,0171
2964,00;0,0170
2963,00;0,0170
2962,00;0,0170
2961,00;0,0170
2960,00;0,0170
2959,00;0,0170
2958,00;0,0170
2957,00;0,0170
2956,00;0,0170
2955,00;0,0170
2954,00;0,0169
2953,00;0,0169
2952,00;0,0169
2951,00;0,0169
2950,00;0,0169
2949,00;0,0168
2948,00;0,0168
2947,00;0,0168
2946,00;0,0168
2945,00;0,0168
2944,00;0,0168
2943,00;0,0168
2942,00;0,0168
2941,00;0,0168
2940,00;0,0167
2939,00;0,0167
2938,00;0,0167
2937,00;0,0167
2936,00;0,0167
2935,00;0,0167
2934,00;0,0166
2933,00;0,0166
2932,00;0,0166
2931,00;0,0166
2930,00;0,0166
2929,00;0,0166
2928,00;0,0166
2927,00;0,0165
2926,00;0,0165
2925,00;0,0165
2924,00;0,0165
2923,00;0,0165
2922,00;0,0165
2921,00;0,0165
2920,00;0,0165
2919,00;0,0165
2918,00;0,0164
2917,00;0,0164
2916,00;0,0165
2915,00;0,0165
2914,00;0,0165
2913,00;0,0165
2912,00;0,0166
2911,00;0,0166
2910,00;0,0166
2909,00;0,0166
2908,00;0,0166
2907,00;0,0166
2906,00;0,0166
2905,00;0,0166
2904,00;0,0166
2903,00;0,0167
2902,00;0,0167
2901,00;0,0167
2900,00;0,0166
2899,00;0,0166
2898,00;0,0166
2897,00;0,0166
2896,00;0,0166
2895,00;0,0166
2894,00;0,0166
2893,00;0,0166
2892,00;0,0166
2891,00;0,0166
2890,00;0,0165
2889,00;0,0165
2888,00;0,0165
2887,00;0,0165
2886,00;0,0165
2885,00;0,0165
2884,00;0,0165
2883,00;0,0165
2882,00;0,0165
2881,00;0,0165
2880,00;0,0164
2879,00;0,0164
2878,00;0,0164
2877,00;0,0164
2876,00;0,0164
2875,00;0,0164
2874,00;0,0164
2873,00;0,0164
2872,00;0,0163
2871,00;0,0163
2870,00;0,0163
2869,00;0,0163
2868,00;0,0163
2867,00;0,0163
2866,00;0,0163
2865,00;0,0162
2864,00;0,0162
2863,00;0,0162
2862,00;0,0162
2861,00;0,0162
2860,00;0,0161
2859,00;0,0161
2858,00;0,0161
2857,00;0,0161
2856,00;0,0161
2855,00;0,0160
2854,00;0,0160
2853,00;0,0160
2852,00;0,0160
2851,00;0,0160
2850,00;0,0160
2849,00;0,0160
2848,00;0,0160
2847,00;0,0160
2846,00;0,0160
2845,00;0,0160
2844,00;0,0160
2843,00;0,0160
2842,00;0,0160
2841,00;0,0160
2840,00;0,0160
2839,00;0,0160
2838,00;0,0160
2837,00;0,0160
2836,00;0,0160
2835,00;0,0160
2834,00;0,0160
2833,00;0,0160
2832,00;0,0160
2831,00;0,0160
2830,00;0,0159
2829,00;0,0159
2828,00;0,0159
2827,00;0,0160
2826,00;0,0160
2825,00;0,0159
2824,00;0,0159
2823,00;0,0159
2822,00;0,0159
2821,00;0,0159
2820,00;0,0159
2819,00;0,0159
2818,00;0,0159
2817,00;0,0159
2816,00;0,0159
2815,00;0,0159
2814,00;0,0159
2813,00;0,0159
2812,00;0,0159
2811,00;0,0159
2810,00;0,0158
2809,00;0,0158
2808,00;0,0158
2807,00;0,0158
2806,00;0,0158
2805,00;0,0158
2804,00;0,0158
2803,00;0,0158
2802,00;0,0158
2801,00;0,0158
2800,00;0,0158
2799,00;0,0158
2798,00;0,0158
2797,00;0,0158
2796,00;0,0158
2795,00;0,0158
2794,00;0,0158
2793,00;0,0158
2792,00;0,0158
2791,00;0,0157
2790,00;0,0157
2789,00;0,0157
2788,00;0,0157
2787,00;0,0157
2786,00;0,0157
2785,00;0,0157
2784,00;0,0157
2783,00;0,0157
2782,00;0,0157
2781,00;0,0157
2780,00;0,0157
2779,00;0,0157
2778,00;0,0157
2777,00;0,0157
2776,00;0,0157
2775,00;0,0157
2774,00;0,0157
2773,00;0,0157
2772,00;0,0156
2771,00;0,0156
2770,00;0,0156
2769,00;0,0156
2768,00;0,0156
2767,00;0,0156
2766,00;0,0156
2765,00;0,0156
2764,00;0,0156
2763,00;0,0156
2762,00;0,0156
2761,00;0,0156
2760,00;0,0156
2759,00;0,0156
2758,00;0,0156
2757,00;0,0156
2756,00;0,0156
2755,00;0,0156
2754,00;0,0156
2753,00;0,0156
2752,00;0,0155
2751,00;0,0155
2750,00;0,0155
2749,00;0,0155
2748,00;0,0155
2747,00;0,0155
2746,00;0,0155
2745,00;0,0155
2744,00;0,0155
2743,00;0,0155
2742,00;0,0155
2741,00;0,0155
2740,00;0,0155
2739,00;0,0155
2738,00;0,0155
2737,00;0,0155
2736,00;0,0155
2735,00;0,0155
2734,00;0,0155
2733,00;0,0155
2732,00;0,0155
2731,00;0,0155
2730,00;0,0155
2729,00;0,0155
2728,00;0,0155
2727,00;0,0155
2726,00;0,0154
2725,00;0,0154
2724,00;0,0154
2723,00;0,0154
2722,00;0,0154
2721,00;0,0154
2720,00;0,0154
2719,00;0,0154
2718,00;0,0154
2717,00;0,0154
2716,00;0,0154
2715,00;0,0154
2714,00;0,0154
2713,00;0,0154
2712,00;0,0154
2711,00;0,0154
2710,00;0,0154
2709,00;0,0154
2708,00;0,0154
2707,00;0,0154
2706,00;0,0154
2705,00;0,0154
2704,00;0,0154
2703,00;0,0154
2702,00;0,0154
2701,00;0,0154
2700,00;0,0154
2699,00;0,0154
2698,00;0,0154
2697,00;0,0153
2696,00;0,0153
2695,00;0,0153
2694,00;0,0153
2693,00;0,0153
2692,00;0,0153
2691,00;0,0153
2690,00;0,0153
2689,00;0,0153
2688,00;0,0153
2687,00;0,0153
2686,00;0,0153
2685,00;0,0153
2684,00;0,0153
2683,00;0,0153
2682,00;0,0153
2681,00;0,0153
2680,00;0,0153
2679,00;0,0153
2678,00;0,0153
2677,00;0,0153
2676,00;0,0153
2675,00;0,0153
2674,00;0,0153
2673,00;0,0153
2672,00;0,0153
2671,00;0,0153
2670,00;0,0153
2669,00;0,0153
2668,00;0,0153
2667,00;0,0153
2666,00;0,0154
2665,00;0,0154
2664,00;0,0154
2663,00;0,0154
2662,00;0,0154
2661,00;0,0154
2660,00;0,0154
2659,00;0,0155
2658,00;0,0155
2657,00;0,0155
2656,00;0,0155
2655,00;0,0155
2654,00;0,0155
2653,00;0,0155
2652,00;0,0155
2651,00;0,0155
2650,00;0,0155
2649,00;0,0155
2648,00;0,0155
2647,00;0,0154
2646,00;0,0154
2645,00;0,0154
2644,00;0,0154
2643,00;0,0154
2642,00;0,0154
2641,00;0,0154
2640,00;0,0154
2639,00;0,0154
2638,00;0,0153
2637,00;0,0153
2636,00;0,0153
2635,00;0,0153
2634,00;0,0153
2633,00;0,0153
2632,00;0,0153
2631,00;0,0153
2630,00;0,0153
2629,00;0,0153
2628,00;0,0153
2627,00;0,0153
2626,00;0,0153
2625,00;0,0153
2624,00;0,0152
2623,00;0,0152
2622,00;0,0152
2621,00;0,0152
2620,00;0,0152
2619,00;0,0152
2618,00;0,0152
2617,00;0,0152
2616,00;0,0152
2615,00;0,0152
2614,00;0,0151
2613,00;0,0151
2612,00;0,0151
2611,00;0,0151
2610,00;0,0151
2609,00;0,0151
2608,00;0,0151
2607,00;0,0151
2606,00;0,0151
2605,00;0,0151
2604,00;0,0151
2603,00;0,0150
2602,00;0,0150
2601,00;0,0150
2600,00;0,0150
2599,00;0,0150
2598,00;0,0150
2597,00;0,0150
2596,00;0,0150
2595,00;0,0150
2594,00;0,0150
2593,00;0,0150
2592,00;0,0149
2591,00;0,0149
2590,00;0,0149
2589,00;0,0149
2588,00;0,0149
2587,00;0,0149
2586,00;0,0149
2585,00;0,0149
2584,00;0,0149
2583,00;0,0149
2582,00;0,0149
2581,00;0,0149
2580,00;0,0149
2579,00;0,0148
2578,00;0,0148
2577,00;0,0148
2576,00;0,0148
2575,00;0,0148
2574,00;0,0148
2573,00;0,0148
2572,00;0,0148
2571,00;0,0148
2570,00;0,0148
2569,00;0,0148
2568,00;0,0148
2567,00;0,0148
2566,00;0,0148
2565,00;0,0147
2564,00;0,0147
2563,00;0,0147
2562,00;0,0147
2561,00;0,0147
2560,00;0,0147
2559,00;0,0147
2558,00;0,0147
2557,00;0,0147
2556,00;0,0147
2555,00;0,0147
2554,00;0,0147
2553,00;0,0147
2552,00;0,0147
2551,00;0,0147
2550,00;0,0147
2549,00;0,0147
2548,00;0,0146
2547,00;0,0146
2546,00;0,0146
2545,00;0,0146
2544,00;0,0146
2543,00;0,0146
2542,00;0,0146
2541,00;0,0146
2540,00;0,0146
2539,00;0,0146
2538,00;0,0146
2537,00;0,0146
2536,00;0,0146
2535,00;0,0146
2534,00;0,0146
2533,00;0,0146
2532,00;0,0146
2531,00;0,0146
2530,00;0,0146
2529,00;0,0145
2528,00;0,0145
2527,00;0,0145
2526,00;0,0145
2525,00;0,0145
2524,00;0,0145
2523,00;0,0145
2522,00;0,0145
2521,00;0,0145
2520,00;0,0145
2519,00;0,0145
2518,00;0,0145
2517,00;0,0145
2516,00;0,0145
2515,00;0,0145
2514,00;0,0145
2513,00;0,0145
2512,00;0,0145
2511,00;0,0145
2510,00;0,0145
2509,00;0,0145
2508,00;0,0145
2507,00;0,0145
2506,00;0,0145
2505,00;0,0145
2504,00;0,0145
2503,00;0,0145
2502,00;0,0145
2501,00;0,0145
2500,00;0,0145
2499,00;0,0145
2498,00;0,0145
2497,00;0,0145
2496,00;0,0145
2495,00;0,0145
2494,00;0,0144
2493,00;0,0144
2492,00;0,0144
2491,00;0,0144
2490,00;0,0144
2489,00;0,0144
2488,00;0,0144
2487,00;0,0144
2486,00;0,0144
2485,00;0,0144
2484,00;0,0144
2483,00;0,0144
2482,00;0,0144
2481,00;0,0144
2480,00;0,0144
2479,00;0,0144
2478,00;0,0144
2477,00;0,0144
2476,00;0,0144
2475,00;0,0144
2474,00;0,0144
2473,00;0,0144
2472,00;0,0144
2471,00;0,0144
2470,00;0,0144
2469,00;0,0144
2468,00;0,0144
2467,00;0,0144
2466,00;0,0144
2465,00;0,0144
2464,00;0,0144
2463,00;0,0144
2462,00;0,0144
2461,00;0,0144
2460,00;0,0144
2459,00;0,0144
2458,00;0,0144
2457,00;0,0144
2456,00;0,0144
2455,00;0,0144
2454,00;0,0144
2453,00;0,0144
2452,00;0,0144
2451,00;0,0144
2450,00;0,0144
2449,00;0,0144
2448,00;0,0144
2447,00;0,0144
2446,00;0,0144
2445,00;0,0144
2444,00;0,0144
2443,00;0,0144
2442,00;0,0144
2441,00;0,0144
2440,00;0,0144
2439,00;0,0144
2438,00;0,0144
2437,00;0,0144
2436,00;0,0144
2435,00;0,0144
2434,00;0,0144
2433,00;0,0144
2432,00;0,0144
2431,00;0,0144
2430,00;0,0144
2429,00;0,0143
2428,00;0,0143
2427,00;0,0143
2426,00;0,0143
2425,00;0,0143
2424,00;0,0143
2423,00;0,0143
2422,00;0,0143
2421,00;0,0143
2420,00;0,0142
2419,00;0,0142
2418,00;0,0142
2417,00;0,0143
2416,00;0,0143
2415,00;0,0143
2414,00;0,0143
2413,00;0,0143
2412,00;0,0143
2411,00;0,0143
2410,00;0,0143
2409,00;0,0143
2408,00;0,0143
2407,00;0,0143
2406,00;0,0143
2405,00;0,0142
2404,00;0,0142
2403,00;0,0142
2402,00;0,0142
2401,00;0,0142
2400,00;0,0142
2399,00;0,0142
2398,00;0,0142
2397,00;0,0143
2396,00;0,0143
2395,00;0,0143
2394,00;0,0143
2393,00;0,0143
2392,00;0,0143
2391,00;0,0144
2390,00;0,0144
2389,00;0,0144
2388,00;0,0144
2387,00;0,0145
2386,00;0,0145
2385,00;0,0146
2384,00;0,0147
2383,00;0,0147
2382,00;0,0148
2381,00;0,0148
2380,00;0,0148
2379,00;0,0148
2378,00;0,0148
2377,00;0,0148
2376,00;0,0149
2375,00;0,0149
2374,00;0,0149
2373,00;0,0150
2372,00;0,0150
2371,00;0,0150
2370,00;0,0150
2369,00;0,0150
2368,00;0,0150
2367,00;0,0151
2366,00;0,0151
2365,00;0,0151
2364,00;0,0152
2363,00;0,0153
2362,00;0,0154
2361,00;0,0154
2360,00;0,0155
2359,00;0,0155
2358,00;0,0155
2357,00;0,0155
2356,00;0,0155
2355,00;0,0155
2354,00;0,0156
2353,00;0,0157
2352,00;0,0157
2351,00;0,0157
2350,00;0,0158
2349,00;0,0158
2348,00;0,0158
2347,00;0,0159
2346,00;0,0159
2345,00;0,0160
2344,00;0,0161
2343,00;0,0162
2342,00;0,0162
2341,00;0,0162
2340,00;0,0162
2339,00;0,0162
2338,00;0,0162
2337,00;0,0162
2336,00;0,0162
2335,00;0,0162
2334,00;0,0162
2333,00;0,0162
2332,00;0,0162
2331,00;0,0162
2330,00;0,0162
2329,00;0,0163
2328,00;0,0163
2327,00;0,0164
2326,00;0,0165
2325,00;0,0167
2324,00;0,0167
2323,00;0,0167
2322,00;0,0166
2321,00;0,0165
2320,00;0,0164
2319,00;0,0163
2318,00;0,0163
2317,00;0,0162
2316,00;0,0161
2315,00;0,0161
2314,00;0,0161
2313,00;0,0161
2312,00;0,0161
2311,00;0,0161
2310,00;0,0160
2309,00;0,0160
2308,00;0,0160
2307,00;0,0159
2306,00;0,0158
2305,00;0,0158
2304,00;0,0158
2303,00;0,0157
2302,00;0,0157
2301,00;0,0157
2300,00;0,0157
2299,00;0,0156
2298,00;0,0156
2297,00;0,0156
2296,00;0,0156
2295,00;0,0155
2294,00;0,0155
2293,00;0,0155
2292,00;0,0155
2291,00;0,0155
2290,00;0,0154
2289,00;0,0154
2288,00;0,0154
2287,00;0,0154
2286,00;0,0154
2285,00;0,0153
2284,00;0,0153
2283,00;0,0152
2282,00;0,0152
2281,00;0,0151
2280,00;0,0151
2279,00;0,0151
2278,00;0,0151
2277,00;0,0150
2276,00;0,0150
2275,00;0,0150
2274,00;0,0150
2273,00;0,0149
2272,00;0,0149
2271,00;0,0149
2270,00;0,0149
2269,00;0,0149
2268,00;0,0149
2267,00;0,0148
2266,00;0,0148
2265,00;0,0148
2264,00;0,0148
2263,00;0,0148
2262,00;0,0147
2261,00;0,0147
2260,00;0,0147
2259,00;0,0147
2258,00;0,0147
2257,00;0,0147
2256,00;0,0146
2255,00;0,0146
2254,00;0,0146
2253,00;0,0146
2252,00;0,0146
2251,00;0,0146
2250,00;0,0146
2249,00;0,0146
2248,00;0,0145
2247,00;0,0145
2246,00;0,0145
2245,00;0,0145
2244,00;0,0145
2243,00;0,0145
2242,00;0,0145
2241,00;0,0145
2240,00;0,0145
2239,00;0,0145
2238,00;0,0145
2237,00;0,0145
2236,00;0,0145
2235,00;0,0145
2234,00;0,0144
2233,00;0,0144
2232,00;0,0144
2231,00;0,0145
2230,00;0,0145
2229,00;0,0145
2228,00;0,0145
2227,00;0,0145
2226,00;0,0145
2225,00;0,0145
2224,00;0,0145
2223,00;0,0145
2222,00;0,0145
2221,00;0,0145
2220,00;0,0145
2219,00;0,0145
2218,00;0,0145
2217,00;0,0145
2216,00;0,0145
2215,00;0,0145
2214,00;0,0145
2213,00;0,0145
2212,00;0,0145
2211,00;0,0145
2210,00;0,0145
2209,00;0,0145
2208,00;0,0145
2207,00;0,0145
2206,00;0,0145
2205,00;0,0145
2204,00;0,0145
2203,00;0,0145
2202,00;0,0145
2201,00;0,0145
2200,00;0,0145
2199,00;0,0145
2198,00;0,0145
2197,00;0,0145
2196,00;0,0145
2195,00;0,0144
2194,00;0,0144
2193,00;0,0144
2192,00;0,0144
2191,00;0,0144
2190,00;0,0143
2189,00;0,0143
2188,00;0,0143
2187,00;0,0144
2186,00;0,0144
2185,00;0,0145
2184,00;0,0145
2183,00;0,0144
2182,00;0,0143
2181,00;0,0142
2180,00;0,0142
2179,00;0,0142
2178,00;0,0142
2177,00;0,0142
2176,00;0,0141
2175,00;0,0141
2174,00;0,0140
2173,00;0,0140
2172,00;0,0140
2171,00;0,0141
2170,00;0,0141
2169,00;0,0141
2168,00;0,0142
2167,00;0,0142
2166,00;0,0142
2165,00;0,0142
2164,00;0,0143
2163,00;0,0143
2162,00;0,0144
2161,00;0,0143
2160,00;0,0141
2159,00;0,0137
2158,00;0,0132
2157,00;0,0129
2156,00;0,0128
2155,00;0,0127
2154,00;0,0128
2153,00;0,0129
2152,00;0,0130
2151,00;0,0131
2150,00;0,0131
2149,00;0,0131
2148,00;0,0130
2147,00;0,0130
2146,00;0,0130
2145,00;0,0130
2144,00;0,0130
2143,00;0,0130
2142,00;0,0130
2141,00;0,0131
2140,00;0,0131
2139,00;0,0131
2138,00;0,0131
2137,00;0,0131
2136,00;0,0130
2135,00;0,0129
2134,00;0,0129
2133,00;0,0129
2132,00;0,0129
2131,00;0,0130
2130,00;0,0131
2129,00;0,0131
2128,00;0,0131
2127,00;0,0132
2126,00;0,0133
2125,00;0,0134
2124,00;0,0134
2123,00;0,0135
2122,00;0,0135
2121,00;0,0135
2120,00;0,0135
2119,00;0,0135
2118,00;0,0136
2117,00;0,0137
2116,00;0,0138
2115,00;0,0138
2114,00;0,0139
2113,00;0,0139
2112,00;0,0139
2111,00;0,0139
2110,00;0,0138
2109,00;0,0138
2108,00;0,0138
2107,00;0,0139
2106,00;0,0139
2105,00;0,0139
2104,00;0,0139
2103,00;0,0139
2102,00;0,0139
2101,00;0,0138
2100,00;0,0138
2099,00;0,0138
2098,00;0,0138
2097,00;0,0138
2096,00;0,0137
2095,00;0,0137
2094,00;0,0137
2093,00;0,0137
2092,00;0,0137
2091,00;0,0138
2090,00;0,0138
2089,00;0,0138
2088,00;0,0139
2087,00;0,0139
2086,00;0,0140
2085,00;0,0141
2084,00;0,0141
2083,00;0,0141
2082,00;0,0141
2081,00;0,0140
2080,00;0,0140
2079,00;0,0140
2078,00;0,0140
2077,00;0,0140
2076,00;0,0140
2075,00;0,0139
2074,00;0,0139
2073,00;0,0139
2072,00;0,0139
2071,00;0,0139
2070,00;0,0139
2069,00;0,0140
2068,00;0,0140
2067,00;0,0140
2066,00;0,0140
2065,00;0,0140
2064,00;0,0140
2063,00;0,0140
2062,00;0,0140
2061,00;0,0140
2060,00;0,0140
2059,00;0,0140
2058,00;0,0140
2057,00;0,0140
2056,00;0,0141
2055,00;0,0140
2054,00;0,0141
2053,00;0,0141
2052,00;0,0142
2051,00;0,0143
2050,00;0,0143
2049,00;0,0142
2048,00;0,0141
2047,00;0,0140
2046,00;0,0140
2045,00;0,0139
2044,00;0,0139
2043,00;0,0139
2042,00;0,0139
2041,00;0,0139
2040,00;0,0139
2039,00;0,0139
2038,00;0,0139
2037,00;0,0139
2036,00;0,0139
2035,00;0,0139
2034,00;0,0138
2033,00;0,0138
2032,00;0,0138
2031,00;0,0137
2030,00;0,0137
2029,00;0,0137
2028,00;0,0137
2027,00;0,0137
2026,00;0,0137
2025,00;0,0137
2024,00;0,0137
2023,00;0,0137
2022,00;0,0137
2021,00;0,0137
2020,00;0,0137
2019,00;0,0137
2018,00;0,0136
2017,00;0,0136
2016,00;0,0136
2015,00;0,0137
2014,00;0,0137
2013,00;0,0137
2012,00;0,0137
2011,00;0,0137
2010,00;0,0137
2009,00;0,0137
2008,00;0,0136
2007,00;0,0136
2006,00;0,0135
2005,00;0,0135
2004,00;0,0136
2003,00;0,0136
2002,00;0,0136
2001,00;0,0136
2000,00;0,0136
1999,00;0,0136
1998,00;0,0136
1997,00;0,0136
1996,00;0,0136
1995,00;0,0136
1994,00;0,0136
1993,00;0,0136
1992,00;0,0136
1991,00;0,0137
1990,00;0,0137
1989,00;0,0137
1988,00;0,0137
1987,00;0,0136
1986,00;0,0136
1985,00;0,0135
1984,00;0,0135
1983,00;0,0136
1982,00;0,0136
1981,00;0,0137
1980,00;0,0137
1979,00;0,0137
1978,00;0,0136
1977,00;0,0134
1976,00;0,0133
1975,00;0,0133
1974,00;0,0133
1973,00;0,0133
1972,00;0,0133
1971,00;0,0133
1970,00;0,0132
1969,00;0,0132
1968,00;0,0132
1967,00;0,0132
1966,00;0,0132
1965,00;0,0132
1964,00;0,0132
1963,00;0,0131
1962,00;0,0131
1961,00;0,0131
1960,00;0,0130
1959,00;0,0130
1958,00;0,0129
1957,00;0,0129
1956,00;0,0130
1955,00;0,0130
1954,00;0,0130
1953,00;0,0130
1952,00;0,0130
1951,00;0,0130
1950,00;0,0130
1949,00;0,0129
1948,00;0,0129
1947,00;0,0129
1946,00;0,0130
1945,00;0,0130
1944,00;0,0130
1943,00;0,0130
1942,00;0,0130
1941,00;0,0130
1940,00;0,0129
1939,00;0,0130
1938,00;0,0130
1937,00;0,0131
1936,00;0,0131
1935,00;0,0131
1934,00;0,0131
1933,00;0,0131
1932,00;0,0131
1931,00;0,0130
1930,00;0,0130
1929,00;0,0130
1928,00;0,0130
1927,00;0,0130
1926,00;0,0131
1925,00;0,0131
1924,00;0,0131
1923,00;0,0131
1922,00;0,0131
1921,00;0,0131
1920,00;0,0131
1919,00;0,0131
1918,00;0,0132
1917,00;0,0132
1916,00;0,0132
1915,00;0,0132
1914,00;0,0131
1913,00;0,0131
1912,00;0,0131
1911,00;0,0131
1910,00;0,0131
1909,00;0,0131
1908,00;0,0131
1907,00;0,0132
1906,00;0,0132
1905,00;0,0132
1904,00;0,0131
1903,00;0,0131
1902,00;0,0131
1901,00;0,0131
1900,00;0,0131
1899,00;0,0131
1898,00;0,0131
1897,00;0,0131
1896,00;0,0131
1895,00;0,0131
1894,00;0,0131
1893,00;0,0131
1892,00;0,0131
1891,00;0,0131
1890,00;0,0131
1889,00;0,0131
1888,00;0,0131
1887,00;0,0131
1886,00;0,0131
1885,00;0,0131
1884,00;0,0131
1883,00;0,0131
1882,00;0,0131
1881,00;0,0131
1880,00;0,0130
1879,00;0,0130
1878,00;0,0130
1877,00;0,0130
1876,00;0,0130
1875,00;0,0130
1874,00;0,0130
1873,00;0,0130
1872,00;0,0130
1871,00;0,0130
1870,00;0,0130
1869,00;0,0130
1868,00;0,0130
1867,00;0,0130
1866,00;0,0130
1865,00;0,0130
1864,00;0,0130
1863,00;0,0130
1862,00;0,0130
1861,00;0,0130
1860,00;0,0130
1859,00;0,0130
1858,00;0,0130
1857,00;0,0131
1856,00;0,0131
1855,00;0,0130
1854,00;0,0130
1853,00;0,0130
1852,00;0,0130
1851,00;0,0130
1850,00;0,0130
1849,00;0,0130
1848,00;0,0130
1847,00;0,0130
1846,00;0,0130
1845,00;0,0130
1844,00;0,0130
1843,00;0,0130
1842,00;0,0130
1841,00;0,0130
1840,00;0,0130
1839,00;0,0130
1838,00;0,0130
1837,00;0,0130
1836,00;0,0130
1835,00;0,0130
1834,00;0,0130
1833,00;0,0130
1832,00;0,0130
1831,00;0,0130
1830,00;0,0130
1829,00;0,0130
1828,00;0,0130
1827,00;0,0130
1826,00;0,0130
1825,00;0,0130
1824,00;0,0130
1823,00;0,0130
1822,00;0,0130
1821,00;0,0130
1820,00;0,0130
1819,00;0,0130
1818,00;0,0129
1817,00;0,0129
1816,00;0,0129
1815,00;0,0130
1814,00;0,0130
1813,00;0,0130
1812,00;0,0130
1811,00;0,0131
1810,00;0,0131
1809,00;0,0131
1808,00;0,0131
1807,00;0,0131
1806,00;0,0131
1805,00;0,0131
1804,00;0,0131
1803,00;0,0131
1802,00;0,0131
1801,00;0,0132
1800,00;0,0132
1799,00;0,0132
1798,00;0,0133
1797,00;0,0133
1796,00;0,0133
1795,00;0,0133
1794,00;0,0133
1793,00;0,0133
1792,00;0,0133
1791,00;0,0134
1790,00;0,0134
1789,00;0,0134
1788,00;0,0134
1787,00;0,0134
1786,00;0,0134
1785,00;0,0134
1784,00;0,0135
1783,00;0,0135
1782,00;0,0135
1781,00;0,0135
1780,00;0,0135
1779,00;0,0135
1778,00;0,0135
1777,00;0,0135
1776,00;0,0135
1775,00;0,0135
1774,00;0,0136
1773,00;0,0136
1772,00;0,0136
1771,00;0,0136
1770,00;0,0136
1769,00;0,0136
1768,00;0,0136
1767,00;0,0136
1766,00;0,0136
1765,00;0,0137
1764,00;0,0137
1763,00;0,0137
1762,00;0,0137
1761,00;0,0137
1760,00;0,0137
1759,00;0,0137
1758,00;0,0137
1757,00;0,0137
1756,00;0,0137
1755,00;0,0137
1754,00;0,0137
1753,00;0,0137
1752,00;0,0137
1751,00;0,0138
1750,00;0,0138
1749,00;0,0138
1748,00;0,0138
1747,00;0,0138
1746,00;0,0138
1745,00;0,0138
1744,00;0,0138
1743,00;0,0138
1742,00;0,0138
1741,00;0,0138
1740,00;0,0139
1739,00;0,0139
1738,00;0,0139
1737,00;0,0139
1736,00;0,0139
1735,00;0,0139
1734,00;0,0140
1733,00;0,0140
1732,00;0,0140
1731,00;0,0140
1730,00;0,0140
1729,00;0,0141
1728,00;0,0141
1727,00;0,0141
1726,00;0,0141
1725,00;0,0141
1724,00;0,0141
1723,00;0,0141
1722,00;0,0141
1721,00;0,0141
1720,00;0,0141
1719,00;0,0141
1718,00;0,0142
1717,00;0,0142
1716,00;0,0142
1715,00;0,0142
1714,00;0,0143
1713,00;0,0143
1712,00;0,0143
1711,00;0,0143
1710,00;0,0143
1709,00;0,0143
1708,00;0,0143
1707,00;0,0143
1706,00;0,0143
1705,00;0,0143
1704,00;0,0143
1703,00;0,0143
1702,00;0,0143
1701,00;0,0143
1700,00;0,0143
1699,00;0,0143
1698,00;0,0143
1697,00;0,0143
1696,00;0,0143
1695,00;0,0144
1694,00;0,0144
1693,00;0,0144
1692,00;0,0144
1691,00;0,0144
1690,00;0,0144
1689,00;0,0144
1688,00;0,0145
1687,00;0,0145
1686,00;0,0145
1685,00;0,0145
1684,00;0,0145
1683,00;0,0146
1682,00;0,0146
1681,00;0,0147
1680,00;0,0147
1679,00;0,0146
1678,00;0,0146
1677,00;0,0146
1676,00;0,0147
1675,00;0,0147
1674,00;0,0147
1673,00;0,0148
1672,00;0,0148
1671,00;0,0148
1670,00;0,0149
1669,00;0,0149
1668,00;0,0150
1667,00;0,0150
1666,00;0,0151
1665,00;0,0151
1664,00;0,0151
1663,00;0,0152
1662,00;0,0152
1661,00;0,0153
1660,00;0,0153
1659,00;0,0154
1658,00;0,0154
1657,00;0,0154
1656,00;0,0155
1655,00;0,0155
1654,00;0,0155
1653,00;0,0157
1652,00;0,0158
1651,00;0,0159
1650,00;0,0159
1649,00;0,0159
1648,00;0,0160
1647,00;0,0160
1646,00;0,0160
1645,00;0,0161
1644,00;0,0161
1643,00;0,0162
1642,00;0,0162
1641,00;0,0163
1640,00;0,0163
1639,00;0,0164
1638,00;0,0164
1637,00;0,0164
1636,00;0,0165
1635,00;0,0166
1634,00;0,0166
1633,00;0,0166
1632,00;0,0167
1631,00;0,0167
1630,00;0,0167
1629,00;0,0167
1628,00;0,0167
1627,00;0,0167
1626,00;0,0167
1625,00;0,0168
1624,00;0,0168
1623,00;0,0167
1622,00;0,0167
1621,00;0,0167
1620,00;0,0167
1619,00;0,0167
1618,00;0,0167
1617,00;0,0167
1616,00;0,0166
1615,00;0,0166
1614,00;0,0166
1613,00;0,0166
1612,00;0,0166
1611,00;0,0166
1610,00;0,0166
1609,00;0,0165
1608,00;0,0165
1607,00;0,0165
1606,00;0,0165
1605,00;0,0164
1604,00;0,0164
1603,00;0,0164
1602,00;0,0164
1601,00;0,0164
1600,00;0,0163
1599,00;0,0163
1598,00;0,0163
1597,00;0,0162
1596,00;0,0162
1595,00;0,0162
1594,00;0,0162
1593,00;0,0162
1592,00;0,0162
1591,00;0,0162
1590,00;0,0161
1589,00;0,0161
1588,00;0,0161
1587,00;0,0161
1586,00;0,0161
1585,00;0,0161
1584,00;0,0161
1583,00;0,0161
1582,00;0,0161
1581,00;0,0160
1580,00;0,0160
1579,00;0,0160
1578,00;0,0160
1577,00;0,0160
1576,00;0,0160
1575,00;0,0160
1574,00;0,0160
1573,00;0,0160
1572,00;0,0160
1571,00;0,0160
1570,00;0,0160
1569,00;0,0160
1568,00;0,0160
1567,00;0,0160
1566,00;0,0160
1565,00;0,0160
1564,00;0,0160
1563,00;0,0160
1562,00;0,0159
1561,00;0,0159
1560,00;0,0159
1559,00;0,0159
1558,00;0,0159
1557,00;0,0159
1556,00;0,0159
1555,00;0,0159
1554,00;0,0159
1553,00;0,0159
1552,00;0,0159
1551,00;0,0159
1550,00;0,0159
1549,00;0,0158
1548,00;0,0158
1547,00;0,0158
1546,00;0,0158
1545,00;0,0158
1544,00;0,0158
1543,00;0,0158
1542,00;0,0157
1541,00;0,0157
1540,00;0,0157
1539,00;0,0156
1538,00;0,0156
1537,00;0,0156
1536,00;0,0156
1535,00;0,0156
1534,00;0,0156
1533,00;0,0156
1532,00;0,0155
1531,00;0,0155
1530,00;0,0155
1529,00;0,0155
1528,00;0,0155
1527,00;0,0154
1526,00;0,0154
1525,00;0,0154
1524,00;0,0154
1523,00;0,0153
1522,00;0,0153
1521,00;0,0153
1520,00;0,0152
1519,00;0,0152
1518,00;0,0152
1517,00;0,0152
1516,00;0,0152
1515,00;0,0151
1514,00;0,0151
1513,00;0,0151
1512,00;0,0151
1511,00;0,0151
1510,00;0,0150
1509,00;0,0150
1508,00;0,0150
1507,00;0,0149
1506,00;0,0149
1505,00;0,0149
1504,00;0,0148
1503,00;0,0148
1502,00;0,0148
1501,00;0,0148
1500,00;0,0148
1499,00;0,0148
1498,00;0,0148
1497,00;0,0147
1496,00;0,0147
1495,00;0,0147
1494,00;0,0147
1493,00;0,0146
1492,00;0,0146
1491,00;0,0146
1490,00;0,0146
1489,00;0,0146
1488,00;0,0145
1487,00;0,0145
1486,00;0,0145
1485,00;0,0145
1484,00;0,0145
1483,00;0,0145
1482,00;0,0145
1481,00;0,0145
1480,00;0,0145
1479,00;0,0144
1478,00;0,0144
1477,00;0,0144
1476,00;0,0144
1475,00;0,0144
1474,00;0,0144
1473,00;0,0143
1472,00;0,0143
1471,00;0,0143
1470,00;0,0143
1469,00;0,0143
1468,00;0,0143
1467,00;0,0143
1466,00;0,0143
1465,00;0,0143
1464,00;0,0142
1463,00;0,0142
1462,00;0,0142
1461,00;0,0142
1460,00;0,0142
1459,00;0,0143
1458,00;0,0143
1457,00;0,0143
1456,00;0,0143
1455,00;0,0143
1454,00;0,0143
1453,00;0,0143
1452,00;0,0143
1451,00;0,0143
1450,00;0,0143
1449,00;0,0143
1448,00;0,0143
1447,00;0,0143
1446,00;0,0144
1445,00;0,0144
1444,00;0,0144
1443,00;0,0143
1442,00;0,0143
1441,00;0,0143
1440,00;0,0143
1439,00;0,0143
1438,00;0,0144
1437,00;0,0144
1436,00;0,0144
1435,00;0,0144
1434,00;0,0144
1433,00;0,0144
1432,00;0,0144
1431,00;0,0144
1430,00;0,0144
1429,00;0,0144
1428,00;0,0144
1427,00;0,0144
1426,00;0,0144
1425,00;0,0144
1424,00;0,0144
1423,00;0,0144
1422,00;0,0144
1421,00;0,0144
1420,00;0,0144
1419,00;0,0144
1418,00;0,0144
1417,00;0,0145
1416,00;0,0145
1415,00;0,0145
1414,00;0,0145
1413,00;0,0145
1412,00;0,0145
1411,00;0,0145
1410,00;0,0145
1409,00;0,0145
1408,00;0,0146
1407,00;0,0146
1406,00;0,0146
1405,00;0,0146
1404,00;0,0146
1403,00;0,0145
1402,00;0,0145
1401,00;0,0145
1400,00;0,0145
1399,00;0,0145
1398,00;0,0145
1397,00;0,0145
1396,00;0,0145
1395,00;0,0145
1394,00;0,0145
1393,00;0,0145
1392,00;0,0145
1391,00;0,0144
1390,00;0,0144
1389,00;0,0144
1388,00;0,0143
1387,00;0,0143
1386,00;0,0143
1385,00;0,0143
1384,00;0,0143
1383,00;0,0143
1382,00;0,0143
1381,00;0,0142
1380,00;0,0142
1379,00;0,0142
1378,00;0,0142
1377,00;0,0142
1376,00;0,0141
1375,00;0,0141
1374,00;0,0141
1373,00;0,0141
1372,00;0,0141
1371,00;0,0140
1370,00;0,0140
1369,00;0,0140
1368,00;0,0139
1367,00;0,0139
1366,00;0,0139
1365,00;0,0139
1364,00;0,0138
1363,00;0,0138
1362,00;0,0138
1361,00;0,0138
1360,00;0,0138
1359,00;0,0138
1358,00;0,0138
1357,00;0,0137
1356,00;0,0137
1355,00;0,0137
1354,00;0,0136
1353,00;0,0136
1352,00;0,0136
1351,00;0,0136
1350,00;0,0136
1349,00;0,0136
1348,00;0,0136
1347,00;0,0136
1346,00;0,0135
1345,00;0,0135
1344,00;0,0135
1343,00;0,0135
1342,00;0,0135
1341,00;0,0135
1340,00;0,0135
1339,00;0,0134
1338,00;0,0134
1337,00;0,0134
1336,00;0,0134
1335,00;0,0134
1334,00;0,0133
1333,00;0,0133
1332,00;0,0133
1331,00;0,0133
1330,00;0,0133
1329,00;0,0133
1328,00;0,0133
1327,00;0,0132
1326,00;0,0132
1325,00;0,0132
1324,00;0,0132
1323,00;0,0132
1322,00;0,0132
1321,00;0,0132
1320,00;0,0133
1319,00;0,0133
1318,00;0,0133
1317,00;0,0132
1316,00;0,0132
1315,00;0,0132
1314,00;0,0132
1313,00;0,0132
1312,00;0,0132
1311,00;0,0132
1310,00;0,0132
1309,00;0,0132
1308,00;0,0132
1307,00;0,0132
1306,00;0,0132
1305,00;0,0131
1304,00;0,0131
1303,00;0,0131
1302,00;0,0131
1301,00;0,0131
1300,00;0,0131
1299,00;0,0132
1298,00;0,0132
1297,00;0,0132
1296,00;0,0132
1295,00;0,0132
1294,00;0,0132
1293,00;0,0132
1292,00;0,0132
1291,00;0,0132
1290,00;0,0133
1289,00;0,0133
1288,00;0,0133
1287,00;0,0133
1286,00;0,0133
1285,00;0,0133
1284,00;0,0133
1283,00;0,0134
1282,00;0,0134
1281,00;0,0134
1280,00;0,0134
1279,00;0,0135
1278,00;0,0135
1277,00;0,0135
1276,00;0,0136
1275,00;0,0137
1274,00;0,0137
1273,00;0,0138
1272,00;0,0138
1271,00;0,0139
1270,00;0,0139
1269,00;0,0139
1268,00;0,0140
1267,00;0,0140
1266,00;0,0141
1265,00;0,0142
1264,00;0,0142
1263,00;0,0143
1262,00;0,0144
1261,00;0,0144
1260,00;0,0145
1259,00;0,0146
1258,00;0,0146
1257,00;0,0147
1256,00;0,0148
1255,00;0,0149
1254,00;0,0149
1253,00;0,0150
1252,00;0,0151
1251,00;0,0152
1250,00;0,0153
1249,00;0,0154
1248,00;0,0155
1247,00;0,0156
1246,00;0,0156
1245,00;0,0157
1244,00;0,0158
1243,00;0,0159
1242,00;0,0160
1241,00;0,0161
1240,00;0,0162
1239,00;0,0162
1238,00;0,0163
1237,00;0,0164
1236,00;0,0165
1235,00;0,0166
1234,00;0,0167
1233,00;0,0168
1232,00;0,0169
1231,00;0,0170
1230,00;0,0171
1229,00;0,0172
1228,00;0,0172
1227,00;0,0173
1226,00;0,0174
1225,00;0,0175
1224,00;0,0176
1223,00;0,0177
1222,00;0,0177
1221,00;0,0178
1220,00;0,0179
1219,00;0,0180
1218,00;0,0181
1217,00;0,0182
1216,00;0,0182
1215,00;0,0183
1214,00;0,0184
1213,00;0,0185
1212,00;0,0186
1211,00;0,0187
1210,00;0,0188
1209,00;0,0189
1208,00;0,0190
1207,00;0,0191
1206,00;0,0192
1205,00;0,0194
1204,00;0,0195
1203,00;0,0196
1202,00;0,0198
1201,00;0,0199
1200,00;0,0200
1199,00;0,0201
1198,00;0,0202
1197,00;0,0203
1196,00;0,0205
1195,00;0,0206
1194,00;0,0207
1193,00;0,0208
1192,00;0,0208
1191,00;0,0209
1190,00;0,0209
1189,00;0,0210
1188,00;0,0211
1187,00;0,0211
1186,00;0,0212
1185,00;0,0212
1184,00;0,0213
1183,00;0,0213
1182,00;0,0214
1181,00;0,0215
1180,00;0,0215
1179,00;0,0216
1178,00;0,0216
1177,00;0,0217
1176,00;0,0218
1175,00;0,0219
1174,00;0,0220
1173,00;0,0220
1172,00;0,0221
1171,00;0,0221
1170,00;0,0222
1169,00;0,0223
1168,00;0,0224
1167,00;0,0225
1166,00;0,0226
1165,00;0,0226
1164,00;0,0228
1163,00;0,0229
1162,00;0,0230
1161,00;0,0231
1160,00;0,0232
1159,00;0,0232
1158,00;0,0233
1157,00;0,0234
1156,00;0,0235
1155,00;0,0237
1154,00;0,0238
1153,00;0,0240
1152,00;0,0242
1151,00;0,0243
1150,00;0,0244
1149,00;0,0245
1148,00;0,0246
1147,00;0,0248
1146,00;0,0249
1145,00;0,0250
1144,00;0,0251
1143,00;0,0253
1142,00;0,0254
1141,00;0,0255
1140,00;0,0257
1139,00;0,0258
1138,00;0,0259
1137,00;0,0260
1136,00;0,0260
1135,00;0,0261
1134,00;0,0261
1133,00;0,0262
1132,00;0,0262
1131,00;0,0263
1130,00;0,0263
1129,00;0,0263
1128,00;0,0262
1127,00;0,0262
1126,00;0,0261
1125,00;0,0261
1124,00;0,0261
1123,00;0,0261
1122,00;0,0260
1121,00;0,0260
1120,00;0,0259
1119,00;0,0259
1118,00;0,0258
1117,00;0,0258
1116,00;0,0257
1115,00;0,0256
1114,00;0,0256
1113,00;0,0256
1112,00;0,0256
1111,00;0,0256
1110,00;0,0256
1109,00;0,0255
1108,00;0,0255
1107,00;0,0254
1106,00;0,0253
1105,00;0,0252
1104,00;0,0251
1103,00;0,0250
1102,00;0,0249
1101,00;0,0247
1100,00;0,0245
1099,00;0,0243
1098,00;0,0241
1097,00;0,0239
1096,00;0,0237
1095,00;0,0235
1094,00;0,0233
1093,00;0,0232
1092,00;0,0231
1091,00;0,0230
1090,00;0,0230
1089,00;0,0229
1088,00;0,0229
1087,00;0,0228
1086,00;0,0227
1085,00;0,0226
1084,00;0,0225
1083,00;0,0225
1082,00;0,0224
1081,00;0,0224
1080,00;0,0224
1079,00;0,0223
1078,00;0,0223
1077,00;0,0223
1076,00;0,0222
1075,00;0,0222
1074,00;0,0222
1073,00;0,0222
1072,00;0,0221
1071,00;0,0221
1070,00;0,0220
1069,00;0,0220
1068,00;0,0220
1067,00;0,0220
1066,00;0,0220
1065,00;0,0220
1064,00;0,0220
1063,00;0,0220
1062,00;0,0220
1061,00;0,0220
1060,00;0,0220
1059,00;0,0220
1058,00;0,0220
1057,00;0,0220
1056,00;0,0220
1055,00;0,0220
1054,00;0,0219
1053,00;0,0220
1052,00;0,0220
1051,00;0,0220
1050,00;0,0220
1049,00;0,0220
1048,00;0,0220
1047,00;0,0221
1046,00;0,0220
1045,00;0,0220
1044,00;0,0219
1043,00;0,0219
1042,00;0,0218
1041,00;0,0218
1040,00;0,0217
1039,00;0,0216
1038,00;0,0216
1037,00;0,0216
1036,00;0,0215
1035,00;0,0214
1034,00;0,0214
1033,00;0,0213
1032,00;0,0211
1031,00;0,0210
1030,00;0,0209
1029,00;0,0209
1028,00;0,0208
1027,00;0,0206
1026,00;0,0205
1025,00;0,0204
1024,00;0,0203
1023,00;0,0202
1022,00;0,0201
1021,00;0,0200
1020,00;0,0199
1019,00;0,0198
1018,00;0,0197
1017,00;0,0196
1016,00;0,0195
1015,00;0,0194
1014,00;0,0193
1013,00;0,0192
1012,00;0,0191
1011,00;0,0190
1010,00;0,0189
1009,00;0,0189
1008,00;0,0188
1007,00;0,0187
1006,00;0,0186
1005,00;0,0186
1004,00;0,0186
1003,00;0,0186
1002,00;0,0186
1001,00;0,0185
1000,00;0,0186
999,00;0,0186
998,00;0,0186
997,00;0,0186
996,00;0,0186
995,00;0,0185
994,00;0,0184
993,00;0,0183
992,00;0,0183
991,00;0,0183
990,00;0,0182
989,00;0,0182
988,00;0,0181
987,00;0,0180
986,00;0,0179
985,00;0,0178
984,00;0,0178
983,00;0,0177
982,00;0,0177
981,00;0,0176
980,00;0,0175
979,00;0,0174
978,00;0,0174
977,00;0,0173
976,00;0,0172
975,00;0,0172
974,00;0,0171
973,00;0,0171
972,00;0,0170
971,00;0,0169
970,00;0,0169
969,00;0,0168
968,00;0,0167
967,00;0,0166
966,00;0,0165
965,00;0,0165
964,00;0,0164
963,00;0,0163
962,00;0,0163
961,00;0,0162
960,00;0,0162
959,00;0,0161
958,00;0,0161
957,00;0,0160
956,00;0,0159
955,00;0,0158
954,00;0,0157
953,00;0,0156
952,00;0,0156
951,00;0,0155
950,00;0,0155
949,00;0,0155
948,00;0,0155
947,00;0,0154
946,00;0,0154
945,00;0,0153
944,00;0,0152
943,00;0,0152
942,00;0,0152
941,00;0,0151
940,00;0,0151
939,00;0,0150
938,00;0,0150
937,00;0,0149
936,00;0,0149
935,00;0,0148
934,00;0,0148
933,00;0,0148
932,00;0,0147
931,00;0,0146
930,00;0,0146
929,00;0,0145
928,00;0,0145
927,00;0,0145
926,00;0,0144
925,00;0,0144
924,00;0,0144
923,00;0,0143
922,00;0,0143
921,00;0,0143
920,00;0,0142
919,00;0,0142
918,00;0,0141
917,00;0,0141
916,00;0,0141
915,00;0,0140
914,00;0,0140
913,00;0,0140
912,00;0,0140
911,00;0,0140
910,00;0,0140
909,00;0,0140
908,00;0,0139
907,00;0,0139
906,00;0,0139
905,00;0,0138
904,00;0,0138
903,00;0,0138
902,00;0,0138
901,00;0,0138
900,00;0,0137
899,00;0,0137
898,00;0,0137
897,00;0,0137
896,00;0,0137
895,00;0,0137
894,00;0,0136
893,00;0,0136
892,00;0,0136
891,00;0,0136
890,00;0,0135
889,00;0,0135
888,00;0,0135
887,00;0,0135
886,00;0,0135
885,00;0,0135
884,00;0,0135
883,00;0,0134
882,00;0,0134
881,00;0,0134
880,00;0,0134
879,00;0,0134
878,00;0,0133
877,00;0,0133
876,00;0,0133
875,00;0,0133
874,00;0,0133
873,00;0,0132
872,00;0,0132
871,00;0,0132
870,00;0,0132
869,00;0,0132
868,00;0,0132
867,00;0,0132
866,00;0,0132
865,00;0,0131
864,00;0,0131
863,00;0,0131
862,00;0,0131
861,00;0,0131
860,00;0,0131
859,00;0,0131
858,00;0,0130
857,00;0,0130
856,00;0,0130
855,00;0,0130
854,00;0,0130
853,00;0,0130
852,00;0,0130
851,00;0,0130
850,00;0,0129
849,00;0,0129
848,00;0,0129
847,00;0,0130
846,00;0,0130
845,00;0,0130
844,00;0,0130
843,00;0,0130
842,00;0,0130
841,00;0,0130
840,00;0,0130
839,00;0,0130
838,00;0,0129
837,00;0,0129
836,00;0,0129
835,00;0,0130
834,00;0,0130
833,00;0,0130
832,00;0,0130
831,00;0,0130
830,00;0,0130
829,00;0,0130
828,00;0,0130
827,00;0,0130
826,00;0,0129
825,00;0,0129
824,00;0,0130
823,00;0,0130
822,00;0,0130
821,00;0,0130
820,00;0,0130
819,00;0,0130
818,00;0,0130
817,00;0,0130
816,00;0,0130
815,00;0,0130
814,00;0,0130
813,00;0,0129
812,00;0,0129
811,00;0,0129
810,00;0,0129
809,00;0,0130
808,00;0,0130
807,00;0,0130
806,00;0,0129
805,00;0,0129
804,00;0,0130
803,00;0,0130
802,00;0,0130
801,00;0,0130
800,00;0,0130
799,00;0,0129
798,00;0,0129
797,00;0,0129
796,00;0,0129
795,00;0,0130
794,00;0,0129
793,00;0,0129
792,00;0,0129
791,00;0,0129
790,00;0,0129
789,00;0,0130
788,00;0,0130
787,00;0,0130
786,00;0,0130
785,00;0,0129
784,00;0,0130
783,00;0,0130
782,00;0,0130
781,00;0,0129
780,00;0,0129
779,00;0,0129
778,00;0,0129
777,00;0,0129
776,00;0,0130
775,00;0,0130
774,00;0,0130
773,00;0,0130
772,00;0,0129
771,00;0,0129
770,00;0,0128
769,00;0,0129
768,00;0,0129
767,00;0,0129
766,00;0,0129
765,00;0,0129
764,00;0,0128
763,00;0,0128
762,00;0,0127
761,00;0,0127
760,00;0,0127
759,00;0,0127
758,00;0,0127
757,00;0,0127
756,00;0,0127
755,00;0,0126
754,00;0,0126
753,00;0,0126
752,00;0,0127
751,00;0,0127
750,00;0,0128
749,00;0,0130
748,00;0,0131
747,00;0,0133
746,00;0,0136
745,00;0,0139
744,00;0,0143
743,00;0,0147
742,00;0,0150
741,00;0,0154
740,00;0,0158
739,00;0,0162
738,00;0,0166
737,00;0,0171
736,00;0,0175
735,00;0,0179
734,00;0,0182
733,00;0,0185
732,00;0,0188
731,00;0,0191
730,00;0,0193
729,00;0,0194
728,00;0,0195
727,00;0,0194
726,00;0,0192
725,00;0,0190
724,00;0,0187
723,00;0,0184
722,00;0,0181
721,00;0,0179
720,00;0,0177
719,00;0,0175
718,00;0,0174
717,00;0,0174
716,00;0,0177
715,00;0,0180
714,00;0,0184
713,00;0,0187
712,00;0,0190
711,00;0,0193
710,00;0,0195
709,00;0,0197
708,00;0,0200
707,00;0,0203
706,00;0,0206
705,00;0,0209
704,00;0,0213
703,00;0,0217
702,00;0,0219
701,00;0,0222
700,00;0,0225
699,00;0,0228
698,00;0,0232
697,00;0,0236
696,00;0,0239
695,00;0,0239
694,00;0,0238
693,00;0,0235
692,00;0,0232
691,00;0,0228
690,00;0,0224
689,00;0,0219
688,00;0,0214
687,00;0,0206
686,00;0,0198
685,00;0,0188
684,00;0,0179
683,00;0,0171
682,00;0,0164
681,00;0,0157
680,00;0,0151
679,00;0,0145
678,00;0,0140
677,00;0,0136
676,00;0,0133
675,00;0,0131
674,00;0,0129
673,00;0,0126
672,00;0,0125
671,00;0,0123
670,00;0,0120
669,00;0,0117
668,00;0,0114
667,00;0,0114
666,00;0,0115
665,00;0,0117
664,00;0,0118
663,00;0,0120
662,00;0,0121
661,00;0,0122
660,00;0,0125
659,00;0,0128
658,00;0,0132
657,00;0,0136
656,00;0,0139
655,00;0,0143
654,00;0,0148
653,00;0,0153
652,00;0,0159
651,00;0,0165
650,00;0,0171
649,00;0,0176
648,00;0,0183
647,00;0,0190
646,00;0,0196
645,00;0,0203
644,00;0,0211
643,00;0,0218
642,00;0,0224
641,00;0,0230
640,00;0,0238
639,00;0,0246
638,00;0,0254
637,00;0,0261
636,00;0,0266
635,00;0,0269
634,00;0,0270
633,00;0,0268
632,00;0,0266
631,00;0,0262
630,00;0,0257
629,00;0,0253
628,00;0,0248
627,00;0,0242
626,00;0,0235
625,00;0,0228
624,00;0,0222
623,00;0,0216
622,00;0,0209
621,00;0,0203
620,00;0,0197
619,00;0,0191
618,00;0,0185
617,00;0,0179
616,00;0,0173
615,00;0,0169
614,00;0,0165
613,00;0,0161
612,00;0,0157
611,00;0,0153
610,00;0,0150
609,00;0,0148
608,00;0,0147
607,00;0,0146
606,00;0,0143
605,00;0,0141
604,00;0,0139
603,00;0,0135
602,00;0,0131
601,00;0,0128
600,00;0,0125
599,00;0,0121
598,00;0,0117
597,00;0,0114
596,00;0,0112
595,00;0,0113
594,00;0,0115
593,00;0,0116
592,00;0,0117
591,00;0,0117
590,00;0,0115
589,00;0,0114
588,00;0,0113
587,00;0,0113
586,00;0,0114
585,00;0,0115
584,00;0,0117
583,00;0,0118
582,00;0,0116
581,00;0,0114
580,00;0,0112
579,00;0,0109
578,00;0,0107
577,00;0,0104
576,00;0,0101
575,00;0,0096
574,00;0,0093
573,00;0,0091
572,00;0,0091
571,00;0,0091
570,00;0,0090
569,00;0,0092
568,00;0,0096
567,00;0,0102
566,00;0,0107
565,00;0,0115
564,00;0,0123
563,00;0,0130
562,00;0,0136
561,00;0,0144
560,00;0,0154
559,00;0,0165
558,00;0,0174
557,00;0,0181
556,00;0,0188
555,00;0,0196
554,00;0,0203
553,00;0,0211
552,00;0,0218
551,00;0,0221
550,00;0,0222
549,00;0,0221
548,00;0,0218
547,00;0,0213
546,00;0,0206
545,00;0,0200
544,00;0,0194
543,00;0,0186
542,00;0,0175
541,00;0,0164
540,00;0,0155
539,00;0,0145
538,00;0,0132
537,00;0,0119
536,00;0,0106
535,00;0,0093
534,00;0,0079
533,00;0,0066
532,00;0,0052
531,00;0,0036
530,00;0,0019
529,00;0,0003
528,00;-0,0012
527,00;-0,0029
526,00;-0,0050
525,00;-0,0072
524,00;-0,0094
523,00;-0,0117
522,00;-0,0142
521,00;-0,0168
520,00;-0,0193
519,00;-0,0219
518,00;-0,0244
517,00;-0,0267
516,00;-0,0288
515,00;-0,0312
514,00;-0,0338
513,00;-0,0365
512,00;-0,0388
511,00;-0,0410
510,00;-0,0431
509,00;-0,0451
508,00;-0,0468
507,00;-0,0484
506,00;-0,0501
505,00;-0,0521
504,00;-0,0541
503,00;-0,0561
502,00;-0,0580
501,00;-0,0596
500,00;-0,0609
