Создан как новый массив данных;Образец 016 полученный BalashovM Дата пятница, марта 03 2023
cm-1;A
4000,00;0,0237
3999,00;0,0237
3998,00;0,0237
3997,00;0,0237
3996,00;0,0237
3995,00;0,0237
3994,00;0,0237
3993,00;0,0237
3992,00;0,0237
3991,00;0,0237
3990,00;0,0237
3989,00;0,0237
3988,00;0,0237
3987,00;0,0237
3986,00;0,0237
3985,00;0,0237
3984,00;0,0237
3983,00;0,0237
3982,00;0,0237
3981,00;0,0237
3980,00;0,0237
3979,00;0,0237
3978,00;0,0237
3977,00;0,0237
3976,00;0,0237
3975,00;0,0237
3974,00;0,0237
3973,00;0,0237
3972,00;0,0238
3971,00;0,0238
3970,00;0,0238
3969,00;0,0238
3968,00;0,0238
3967,00;0,0238
3966,00;0,0238
3965,00;0,0238
3964,00;0,0238
3963,00;0,0238
3962,00;0,0238
3961,00;0,0238
3960,00;0,0238
3959,00;0,0238
3958,00;0,0238
3957,00;0,0238
3956,00;0,0238
3955,00;0,0238
3954,00;0,0238
3953,00;0,0238
3952,00;0,0239
3951,00;0,0239
3950,00;0,0239
3949,00;0,0239
3948,00;0,0239
3947,00;0,0239
3946,00;0,0239
3945,00;0,0239
3944,00;0,0239
3943,00;0,0239
3942,00;0,0239
3941,00;0,0239
3940,00;0,0239
3939,00;0,0239
3938,00;0,0239
3937,00;0,0239
3936,00;0,0239
3935,00;0,0239
3934,00;0,0239
3933,00;0,0239
3932,00;0,0239
3931,00;0,0239
3930,00;0,0239
3929,00;0,0239
3928,00;0,0239
3927,00;0,0239
3926,00;0,0240
3925,00;0,0240
3924,00;0,0240
3923,00;0,0240
3922,00;0,0240
3921,00;0,0240
3920,00;0,0240
3919,00;0,0240
3918,00;0,0240
3917,00;0,0240
3916,00;0,0240
3915,00;0,0240
3914,00;0,0240
3913,00;0,0240
3912,00;0,0240
3911,00;0,0240
3910,00;0,0240
3909,00;0,0240
3908,00;0,0240
3907,00;0,0240
3906,00;0,0240
3905,00;0,0240
3904,00;0,0240
3903,00;0,0240
3902,00;0,0240
3901,00;0,0240
3900,00;0,0241
3899,00;0,0241
3898,00;0,0241
3897,00;0,0241
3896,00;0,0241
3895,00;0,0241
3894,00;0,0241
3893,00;0,0241
3892,00;0,0241
3891,00;0,0241
3890,00;0,0241
3889,00;0,0241
3888,00;0,0241
3887,00;0,0241
3886,00;0,0241
3885,00;0,0241
3884,00;0,0241
3883,00;0,0241
3882,00;0,0241
3881,00;0,0241
3880,00;0,0241
3879,00;0,0241
3878,00;0,0241
3877,00;0,0241
3876,00;0,0241
3875,00;0,0241
3874,00;0,0241
3873,00;0,0241
3872,00;0,0241
3871,00;0,0241
3870,00;0,0241
3869,00;0,0241
3868,00;0,0241
3867,00;0,0241
3866,00;0,0241
3865,00;0,0241
3864,00;0,0241
3863,00;0,0241
3862,00;0,0241
3861,00;0,0241
3860,00;0,0241
3859,00;0,0241
3858,00;0,0241
3857,00;0,0241
3856,00;0,0241
3855,00;0,0241
3854,00;0,0241
3853,00;0,0241
3852,00;0,0241
3851,00;0,0241
3850,00;0,0242
3849,00;0,0242
3848,00;0,0242
3847,00;0,0242
3846,00;0,0242
3845,00;0,0242
3844,00;0,0242
3843,00;0,0242
3842,00;0,0242
3841,00;0,0242
3840,00;0,0242
3839,00;0,0242
3838,00;0,0242
3837,00;0,0242
3836,00;0,0242
3835,00;0,0242
3834,00;0,0242
3833,00;0,0242
3832,00;0,0242
3831,00;0,0242
3830,00;0,0242
3829,00;0,0242
3828,00;0,0242
3827,00;0,0242
3826,00;0,0242
3825,00;0,0242
3824,00;0,0242
3823,00;0,0243
3822,00;0,0243
3821,00;0,0243
3820,00;0,0242
3819,00;0,0242
3818,00;0,0242
3817,00;0,0242
3816,00;0,0242
3815,00;0,0242
3814,00;0,0242
3813,00;0,0242
3812,00;0,0242
3811,00;0,0242
3810,00;0,0242
3809,00;0,0242
3808,00;0,0242
3807,00;0,0242
3806,00;0,0242
3805,00;0,0242
3804,00;0,0242
3803,00;0,0242
3802,00;0,0242
3801,00;0,0242
3800,00;0,0242
3799,00;0,0242
3798,00;0,0242
3797,00;0,0242
3796,00;0,0242
3795,00;0,0242
3794,00;0,0242
3793,00;0,0242
3792,00;0,0242
3791,00;0,0242
3790,00;0,0242
3789,00;0,0242
3788,00;0,0242
3787,00;0,0242
3786,00;0,0242
3785,00;0,0242
3784,00;0,0242
3783,00;0,0242
3782,00;0,0242
3781,00;0,0242
3780,00;0,0242
3779,00;0,0242
3778,00;0,0242
3777,00;0,0242
3776,00;0,0242
3775,00;0,0242
3774,00;0,0242
3773,00;0,0242
3772,00;0,0242
3771,00;0,0242
3770,00;0,0242
3769,00;0,0242
3768,00;0,0242
3767,00;0,0242
3766,00;0,0242
3765,00;0,0242
3764,00;0,0242
3763,00;0,0242
3762,00;0,0242
3761,00;0,0242
3760,00;0,0242
3759,00;0,0242
3758,00;0,0242
3757,00;0,0242
3756,00;0,0242
3755,00;0,0242
3754,00;0,0243
3753,00;0,0243
3752,00;0,0243
3751,00;0,0242
3750,00;0,0242
3749,00;0,0242
3748,00;0,0242
3747,00;0,0242
3746,00;0,0242
3745,00;0,0242
3744,00;0,0242
3743,00;0,0242
3742,00;0,0242
3741,00;0,0242
3740,00;0,0242
3739,00;0,0242
3738,00;0,0242
3737,00;0,0242
3736,00;0,0242
3735,00;0,0242
3734,00;0,0242
3733,00;0,0242
3732,00;0,0242
3731,00;0,0242
3730,00;0,0242
3729,00;0,0241
3728,00;0,0241
3727,00;0,0241
3726,00;0,0241
3725,00;0,0241
3724,00;0,0241
3723,00;0,0241
3722,00;0,0241
3721,00;0,0241
3720,00;0,0241
3719,00;0,0241
3718,00;0,0241
3717,00;0,0241
3716,00;0,0241
3715,00;0,0241
3714,00;0,0241
3713,00;0,0241
3712,00;0,0241
3711,00;0,0241
3710,00;0,0241
3709,00;0,0241
3708,00;0,0241
3707,00;0,0241
3706,00;0,0242
3705,00;0,0242
3704,00;0,0241
3703,00;0,0241
3702,00;0,0241
3701,00;0,0240
3700,00;0,0240
3699,00;0,0240
3698,00;0,0240
3697,00;0,0240
3696,00;0,0241
3695,00;0,0241
3694,00;0,0241
3693,00;0,0241
3692,00;0,0241
3691,00;0,0241
3690,00;0,0241
3689,00;0,0241
3688,00;0,0242
3687,00;0,0242
3686,00;0,0242
3685,00;0,0242
3684,00;0,0242
3683,00;0,0242
3682,00;0,0242
3681,00;0,0242
3680,00;0,0242
3679,00;0,0242
3678,00;0,0242
3677,00;0,0242
3676,00;0,0243
3675,00;0,0243
3674,00;0,0243
3673,00;0,0243
3672,00;0,0244
3671,00;0,0244
3670,00;0,0243
3669,00;0,0243
3668,00;0,0243
3667,00;0,0243
3666,00;0,0243
3665,00;0,0243
3664,00;0,0243
3663,00;0,0244
3662,00;0,0244
3661,00;0,0244
3660,00;0,0244
3659,00;0,0244
3658,00;0,0244
3657,00;0,0244
3656,00;0,0244
3655,00;0,0244
3654,00;0,0244
3653,00;0,0244
3652,00;0,0244
3651,00;0,0244
3650,00;0,0244
3649,00;0,0245
3648,00;0,0245
3647,00;0,0245
3646,00;0,0244
3645,00;0,0244
3644,00;0,0244
3643,00;0,0244
3642,00;0,0244
3641,00;0,0244
3640,00;0,0244
3639,00;0,0244
3638,00;0,0244
3637,00;0,0244
3636,00;0,0243
3635,00;0,0243
3634,00;0,0243
3633,00;0,0243
3632,00;0,0243
3631,00;0,0243
3630,00;0,0243
3629,00;0,0243
3628,00;0,0244
3627,00;0,0244
3626,00;0,0244
3625,00;0,0244
3624,00;0,0244
3623,00;0,0245
3622,00;0,0245
3621,00;0,0245
3620,00;0,0245
3619,00;0,0245
3618,00;0,0245
3617,00;0,0245
3616,00;0,0245
3615,00;0,0245
3614,00;0,0245
3613,00;0,0245
3612,00;0,0245
3611,00;0,0245
3610,00;0,0245
3609,00;0,0245
3608,00;0,0246
3607,00;0,0246
3606,00;0,0246
3605,00;0,0246
3604,00;0,0246
3603,00;0,0246
3602,00;0,0247
3601,00;0,0247
3600,00;0,0247
3599,00;0,0247
3598,00;0,0247
3597,00;0,0247
3596,00;0,0247
3595,00;0,0247
3594,00;0,0247
3593,00;0,0247
3592,00;0,0248
3591,00;0,0248
3590,00;0,0248
3589,00;0,0248
3588,00;0,0248
3587,00;0,0248
3586,00;0,0248
3585,00;0,0248
3584,00;0,0249
3583,00;0,0249
3582,00;0,0249
3581,00;0,0249
3580,00;0,0249
3579,00;0,0249
3578,00;0,0249
3577,00;0,0249
3576,00;0,0249
3575,00;0,0250
3574,00;0,0250
3573,00;0,0250
3572,00;0,0250
3571,00;0,0250
3570,00;0,0250
3569,00;0,0251
3568,00;0,0251
3567,00;0,0251
3566,00;0,0251
3565,00;0,0251
3564,00;0,0251
3563,00;0,0251
3562,00;0,0251
3561,00;0,0252
3560,00;0,0252
3559,00;0,0252
3558,00;0,0252
3557,00;0,0252
3556,00;0,0252
3555,00;0,0252
3554,00;0,0253
3553,00;0,0253
3552,00;0,0253
3551,00;0,0253
3550,00;0,0253
3549,00;0,0253
3548,00;0,0253
3547,00;0,0254
3546,00;0,0254
3545,00;0,0254
3544,00;0,0254
3543,00;0,0254
3542,00;0,0254
3541,00;0,0254
3540,00;0,0254
3539,00;0,0255
3538,00;0,0255
3537,00;0,0255
3536,00;0,0255
3535,00;0,0255
3534,00;0,0255
3533,00;0,0256
3532,00;0,0256
3531,00;0,0256
3530,00;0,0256
3529,00;0,0256
3528,00;0,0256
3527,00;0,0256
3526,00;0,0256
3525,00;0,0257
3524,00;0,0257
3523,00;0,0257
3522,00;0,0257
3521,00;0,0257
3520,00;0,0257
3519,00;0,0257
3518,00;0,0257
3517,00;0,0257
3516,00;0,0257
3515,00;0,0257
3514,00;0,0258
3513,00;0,0258
3512,00;0,0258
3511,00;0,0258
3510,00;0,0258
3509,00;0,0258
3508,00;0,0258
3507,00;0,0258
3506,00;0,0258
3505,00;0,0259
3504,00;0,0259
3503,00;0,0259
3502,00;0,0259
3501,00;0,0259
3500,00;0,0259
3499,00;0,0259
3498,00;0,0259
3497,00;0,0259
3496,00;0,0259
3495,00;0,0259
3494,00;0,0259
3493,00;0,0259
3492,00;0,0260
3491,00;0,0260
3490,00;0,0260
3489,00;0,0260
3488,00;0,0260
3487,00;0,0260
3486,00;0,0260
3485,00;0,0260
3484,00;0,0260
3483,00;0,0260
3482,00;0,0261
3481,00;0,0261
3480,00;0,0261
3479,00;0,0261
3478,00;0,0261
3477,00;0,0261
3476,00;0,0261
3475,00;0,0261
3474,00;0,0261
3473,00;0,0261
3472,00;0,0262
3471,00;0,0262
3470,00;0,0262
3469,00;0,0262
3468,00;0,0262
3467,00;0,0262
3466,00;0,0262
3465,00;0,0262
3464,00;0,0263
3463,00;0,0263
3462,00;0,0263
3461,00;0,0263
3460,00;0,0263
3459,00;0,0263
3458,00;0,0263
3457,00;0,0263
3456,00;0,0263
3455,00;0,0263
3454,00;0,0264
3453,00;0,0264
3452,00;0,0264
3451,00;0,0264
3450,00;0,0264
3449,00;0,0264
3448,00;0,0264
3447,00;0,0264
3446,00;0,0264
3445,00;0,0264
3444,00;0,0264
3443,00;0,0264
3442,00;0,0264
3441,00;0,0265
3440,00;0,0265
3439,00;0,0265
3438,00;0,0265
3437,00;0,0265
3436,00;0,0265
3435,00;0,0265
3434,00;0,0265
3433,00;0,0265
3432,00;0,0265
3431,00;0,0266
3430,00;0,0266
3429,00;0,0266
3428,00;0,0266
3427,00;0,0266
3426,00;0,0266
3425,00;0,0266
3424,00;0,0266
3423,00;0,0266
3422,00;0,0266
3421,00;0,0266
3420,00;0,0267
3419,00;0,0267
3418,00;0,0267
3417,00;0,0267
3416,00;0,0267
3415,00;0,0267
3414,00;0,0267
3413,00;0,0267
3412,00;0,0267
3411,00;0,0267
3410,00;0,0267
3409,00;0,0267
3408,00;0,0267
3407,00;0,0267
3406,00;0,0267
3405,00;0,0267
3404,00;0,0268
3403,00;0,0268
3402,00;0,0268
3401,00;0,0268
3400,00;0,0268
3399,00;0,0268
3398,00;0,0268
3397,00;0,0268
3396,00;0,0268
3395,00;0,0268
3394,00;0,0268
3393,00;0,0268
3392,00;0,0268
3391,00;0,0268
3390,00;0,0268
3389,00;0,0268
3388,00;0,0268
3387,00;0,0268
3386,00;0,0268
3385,00;0,0268
3384,00;0,0269
3383,00;0,0269
3382,00;0,0269
3381,00;0,0269
3380,00;0,0269
3379,00;0,0269
3378,00;0,0269
3377,00;0,0269
3376,00;0,0269
3375,00;0,0269
3374,00;0,0269
3373,00;0,0269
3372,00;0,0269
3371,00;0,0269
3370,00;0,0269
3369,00;0,0269
3368,00;0,0270
3367,00;0,0270
3366,00;0,0270
3365,00;0,0270
3364,00;0,0270
3363,00;0,0270
3362,00;0,0270
3361,00;0,0270
3360,00;0,0270
3359,00;0,0270
3358,00;0,0270
3357,00;0,0270
3356,00;0,0270
3355,00;0,0270
3354,00;0,0270
3353,00;0,0270
3352,00;0,0270
3351,00;0,0270
3350,00;0,0271
3349,00;0,0271
3348,00;0,0271
3347,00;0,0271
3346,00;0,0271
3345,00;0,0271
3344,00;0,0271
3343,00;0,0272
3342,00;0,0272
3341,00;0,0272
3340,00;0,0272
3339,00;0,0272
3338,00;0,0272
3337,00;0,0272
3336,00;0,0272
3335,00;0,0272
3334,00;0,0272
3333,00;0,0272
3332,00;0,0272
3331,00;0,0272
3330,00;0,0272
3329,00;0,0272
3328,00;0,0272
3327,00;0,0272
3326,00;0,0272
3325,00;0,0273
3324,00;0,0273
3323,00;0,0273
3322,00;0,0273
3321,00;0,0273
3320,00;0,0273
3319,00;0,0273
3318,00;0,0273
3317,00;0,0273
3316,00;0,0273
3315,00;0,0273
3314,00;0,0273
3313,00;0,0273
3312,00;0,0273
3311,00;0,0273
3310,00;0,0273
3309,00;0,0273
3308,00;0,0273
3307,00;0,0273
3306,00;0,0273
3305,00;0,0273
3304,00;0,0274
3303,00;0,0274
3302,00;0,0274
3301,00;0,0274
3300,00;0,0274
3299,00;0,0274
3298,00;0,0274
3297,00;0,0274
3296,00;0,0274
3295,00;0,0274
3294,00;0,0274
3293,00;0,0274
3292,00;0,0274
3291,00;0,0275
3290,00;0,0275
3289,00;0,0275
3288,00;0,0275
3287,00;0,0275
3286,00;0,0275
3285,00;0,0275
3284,00;0,0275
3283,00;0,0275
3282,00;0,0275
3281,00;0,0275
3280,00;0,0275
3279,00;0,0275
3278,00;0,0275
3277,00;0,0275
3276,00;0,0275
3275,00;0,0275
3274,00;0,0275
3273,00;0,0275
3272,00;0,0275
3271,00;0,0275
3270,00;0,0276
3269,00;0,0276
3268,00;0,0276
3267,00;0,0276
3266,00;0,0276
3265,00;0,0276
3264,00;0,0276
3263,00;0,0276
3262,00;0,0276
3261,00;0,0276
3260,00;0,0276
3259,00;0,0276
3258,00;0,0276
3257,00;0,0276
3256,00;0,0276
3255,00;0,0276
3254,00;0,0276
3253,00;0,0276
3252,00;0,0276
3251,00;0,0277
3250,00;0,0277
3249,00;0,0277
3248,00;0,0277
3247,00;0,0277
3246,00;0,0277
3245,00;0,0277
3244,00;0,0277
3243,00;0,0277
3242,00;0,0277
3241,00;0,0277
3240,00;0,0277
3239,00;0,0277
3238,00;0,0277
3237,00;0,0277
3236,00;0,0277
3235,00;0,0277
3234,00;0,0277
3233,00;0,0277
3232,00;0,0278
3231,00;0,0278
3230,00;0,0278
3229,00;0,0278
3228,00;0,0278
3227,00;0,0278
3226,00;0,0278
3225,00;0,0278
3224,00;0,0278
3223,00;0,0278
3222,00;0,0278
3221,00;0,0278
3220,00;0,0278
3219,00;0,0279
3218,00;0,0279
3217,00;0,0279
3216,00;0,0279
3215,00;0,0279
3214,00;0,0279
3213,00;0,0279
3212,00;0,0279
3211,00;0,0279
3210,00;0,0279
3209,00;0,0279
3208,00;0,0279
3207,00;0,0279
3206,00;0,0279
3205,00;0,0280
3204,00;0,0280
3203,00;0,0280
3202,00;0,0280
3201,00;0,0280
3200,00;0,0280
3199,00;0,0280
3198,00;0,0280
3197,00;0,0280
3196,00;0,0280
3195,00;0,0280
3194,00;0,0280
3193,00;0,0280
3192,00;0,0280
3191,00;0,0280
3190,00;0,0280
3189,00;0,0280
3188,00;0,0280
3187,00;0,0280
3186,00;0,0280
3185,00;0,0280
3184,00;0,0281
3183,00;0,0281
3182,00;0,0281
3181,00;0,0281
3180,00;0,0281
3179,00;0,0281
3178,00;0,0281
3177,00;0,0281
3176,00;0,0281
3175,00;0,0281
3174,00;0,0281
3173,00;0,0281
3172,00;0,0281
3171,00;0,0281
3170,00;0,0281
3169,00;0,0281
3168,00;0,0282
3167,00;0,0282
3166,00;0,0282
3165,00;0,0282
3164,00;0,0282
3163,00;0,0282
3162,00;0,0282
3161,00;0,0282
3160,00;0,0282
3159,00;0,0282
3158,00;0,0282
3157,00;0,0282
3156,00;0,0282
3155,00;0,0282
3154,00;0,0282
3153,00;0,0282
3152,00;0,0282
3151,00;0,0282
3150,00;0,0282
3149,00;0,0282
3148,00;0,0282
3147,00;0,0282
3146,00;0,0282
3145,00;0,0282
3144,00;0,0282
3143,00;0,0282
3142,00;0,0282
3141,00;0,0283
3140,00;0,0283
3139,00;0,0283
3138,00;0,0283
3137,00;0,0283
3136,00;0,0283
3135,00;0,0283
3134,00;0,0283
3133,00;0,0283
3132,00;0,0283
3131,00;0,0283
3130,00;0,0283
3129,00;0,0283
3128,00;0,0283
3127,00;0,0283
3126,00;0,0283
3125,00;0,0283
3124,00;0,0283
3123,00;0,0283
3122,00;0,0283
3121,00;0,0283
3120,00;0,0283
3119,00;0,0283
3118,00;0,0283
3117,00;0,0283
3116,00;0,0283
3115,00;0,0284
3114,00;0,0284
3113,00;0,0284
3112,00;0,0284
3111,00;0,0284
3110,00;0,0284
3109,00;0,0284
3108,00;0,0284
3107,00;0,0284
3106,00;0,0284
3105,00;0,0284
3104,00;0,0284
3103,00;0,0284
3102,00;0,0284
3101,00;0,0284
3100,00;0,0284
3099,00;0,0284
3098,00;0,0285
3097,00;0,0285
3096,00;0,0285
3095,00;0,0285
3094,00;0,0285
3093,00;0,0285
3092,00;0,0285
3091,00;0,0285
3090,00;0,0285
3089,00;0,0285
3088,00;0,0285
3087,00;0,0285
3086,00;0,0285
3085,00;0,0285
3084,00;0,0285
3083,00;0,0285
3082,00;0,0285
3081,00;0,0285
3080,00;0,0285
3079,00;0,0286
3078,00;0,0286
3077,00;0,0286
3076,00;0,0286
3075,00;0,0286
3074,00;0,0286
3073,00;0,0286
3072,00;0,0286
3071,00;0,0286
3070,00;0,0286
3069,00;0,0286
3068,00;0,0286
3067,00;0,0286
3066,00;0,0286
3065,00;0,0286
3064,00;0,0286
3063,00;0,0286
3062,00;0,0286
3061,00;0,0286
3060,00;0,0286
3059,00;0,0286
3058,00;0,0286
3057,00;0,0286
3056,00;0,0286
3055,00;0,0286
3054,00;0,0286
3053,00;0,0287
3052,00;0,0287
3051,00;0,0287
3050,00;0,0287
3049,00;0,0287
3048,00;0,0287
3047,00;0,0286
3046,00;0,0286
3045,00;0,0286
3044,00;0,0286
3043,00;0,0286
3042,00;0,0286
3041,00;0,0286
3040,00;0,0286
3039,00;0,0286
3038,00;0,0286
3037,00;0,0286
3036,00;0,0286
3035,00;0,0286
3034,00;0,0286
3033,00;0,0286
3032,00;0,0286
3031,00;0,0286
3030,00;0,0286
3029,00;0,0287
3028,00;0,0287
3027,00;0,0287
3026,00;0,0287
3025,00;0,0287
3024,00;0,0287
3023,00;0,0287
3022,00;0,0286
3021,00;0,0286
3020,00;0,0287
3019,00;0,0287
3018,00;0,0287
3017,00;0,0287
3016,00;0,0287
3015,00;0,0287
3014,00;0,0287
3013,00;0,0288
3012,00;0,0288
3011,00;0,0289
3010,00;0,0290
3009,00;0,0290
3008,00;0,0291
3007,00;0,0291
3006,00;0,0292
3005,00;0,0292
3004,00;0,0293
3003,00;0,0294
3002,00;0,0295
3001,00;0,0296
3000,00;0,0296
2999,00;0,0297
2998,00;0,0297
2997,00;0,0298
2996,00;0,0298
2995,00;0,0298
2994,00;0,0299
2993,00;0,0299
2992,00;0,0300
2991,00;0,0300
2990,00;0,0301
2989,00;0,0301
2988,00;0,0302
2987,00;0,0302
2986,00;0,0303
2985,00;0,0305
2984,00;0,0307
2983,00;0,0309
2982,00;0,0310
2981,00;0,0310
2980,00;0,0310
2979,00;0,0309
2978,00;0,0308
2977,00;0,0307
2976,00;0,0306
2975,00;0,0306
2974,00;0,0306
2973,00;0,0307
2972,00;0,0307
2971,00;0,0306
2970,00;0,0306
2969,00;0,0305
2968,00;0,0305
2967,00;0,0304
2966,00;0,0304
2965,00;0,0304
2964,00;0,0304
2963,00;0,0304
2962,00;0,0304
2961,00;0,0304
2960,00;0,0304
2959,00;0,0304
2958,00;0,0304
2957,00;0,0304
2956,00;0,0304
2955,00;0,0303
2954,00;0,0303
2953,00;0,0303
2952,00;0,0302
2951,00;0,0302
2950,00;0,0302
2949,00;0,0301
2948,00;0,0300
2947,00;0,0299
2946,00;0,0299
2945,00;0,0298
2944,00;0,0298
2943,00;0,0298
2942,00;0,0297
2941,00;0,0297
2940,00;0,0297
2939,00;0,0297
2938,00;0,0297
2937,00;0,0297
2936,00;0,0297
2935,00;0,0297
2934,00;0,0297
2933,00;0,0297
2932,00;0,0298
2931,00;0,0298
2930,00;0,0298
2929,00;0,0298
2928,00;0,0299
2927,00;0,0299
2926,00;0,0300
2925,00;0,0301
2924,00;0,0302
2923,00;0,0302
2922,00;0,0303
2921,00;0,0303
2920,00;0,0304
2919,00;0,0304
2918,00;0,0304
2917,00;0,0304
2916,00;0,0305
2915,00;0,0305
2914,00;0,0306
2913,00;0,0306
2912,00;0,0307
2911,00;0,0308
2910,00;0,0308
2909,00;0,0308
2908,00;0,0308
2907,00;0,0308
2906,00;0,0308
2905,00;0,0308
2904,00;0,0309
2903,00;0,0309
2902,00;0,0309
2901,00;0,0308
2900,00;0,0308
2899,00;0,0308
2898,00;0,0308
2897,00;0,0308
2896,00;0,0308
2895,00;0,0309
2894,00;0,0309
2893,00;0,0309
2892,00;0,0309
2891,00;0,0309
2890,00;0,0309
2889,00;0,0309
2888,00;0,0309
2887,00;0,0309
2886,00;0,0309
2885,00;0,0309
2884,00;0,0308
2883,00;0,0308
2882,00;0,0308
2881,00;0,0307
2880,00;0,0307
2879,00;0,0306
2878,00;0,0306
2877,00;0,0305
2876,00;0,0305
2875,00;0,0305
2874,00;0,0305
2873,00;0,0306
2872,00;0,0306
2871,00;0,0306
2870,00;0,0306
2869,00;0,0306
2868,00;0,0306
2867,00;0,0306
2866,00;0,0306
2865,00;0,0305
2864,00;0,0305
2863,00;0,0305
2862,00;0,0304
2861,00;0,0304
2860,00;0,0304
2859,00;0,0303
2858,00;0,0303
2857,00;0,0303
2856,00;0,0304
2855,00;0,0304
2854,00;0,0304
2853,00;0,0304
2852,00;0,0304
2851,00;0,0305
2850,00;0,0305
2849,00;0,0305
2848,00;0,0305
2847,00;0,0306
2846,00;0,0306
2845,00;0,0306
2844,00;0,0306
2843,00;0,0306
2842,00;0,0306
2841,00;0,0306
2840,00;0,0306
2839,00;0,0305
2838,00;0,0305
2837,00;0,0305
2836,00;0,0305
2835,00;0,0305
2834,00;0,0305
2833,00;0,0305
2832,00;0,0305
2831,00;0,0304
2830,00;0,0304
2829,00;0,0304
2828,00;0,0303
2827,00;0,0303
2826,00;0,0303
2825,00;0,0303
2824,00;0,0303
2823,00;0,0303
2822,00;0,0303
2821,00;0,0303
2820,00;0,0302
2819,00;0,0302
2818,00;0,0302
2817,00;0,0302
2816,00;0,0302
2815,00;0,0302
2814,00;0,0302
2813,00;0,0302
2812,00;0,0302
2811,00;0,0302
2810,00;0,0301
2809,00;0,0301
2808,00;0,0302
2807,00;0,0302
2806,00;0,0302
2805,00;0,0302
2804,00;0,0301
2803,00;0,0301
2802,00;0,0301
2801,00;0,0301
2800,00;0,0301
2799,00;0,0301
2798,00;0,0301
2797,00;0,0301
2796,00;0,0301
2795,00;0,0301
2794,00;0,0301
2793,00;0,0301
2792,00;0,0300
2791,00;0,0300
2790,00;0,0300
2789,00;0,0300
2788,00;0,0300
2787,00;0,0300
2786,00;0,0300
2785,00;0,0300
2784,00;0,0300
2783,00;0,0300
2782,00;0,0300
2781,00;0,0300
2780,00;0,0300
2779,00;0,0300
2778,00;0,0300
2777,00;0,0300
2776,00;0,0300
2775,00;0,0300
2774,00;0,0300
2773,00;0,0300
2772,00;0,0300
2771,00;0,0300
2770,00;0,0300
2769,00;0,0300
2768,00;0,0300
2767,00;0,0300
2766,00;0,0300
2765,00;0,0300
2764,00;0,0300
2763,00;0,0300
2762,00;0,0300
2761,00;0,0300
2760,00;0,0300
2759,00;0,0300
2758,00;0,0300
2757,00;0,0300
2756,00;0,0300
2755,00;0,0299
2754,00;0,0299
2753,00;0,0299
2752,00;0,0299
2751,00;0,0299
2750,00;0,0299
2749,00;0,0299
2748,00;0,0299
2747,00;0,0299
2746,00;0,0299
2745,00;0,0299
2744,00;0,0299
2743,00;0,0299
2742,00;0,0299
2741,00;0,0299
2740,00;0,0299
2739,00;0,0299
2738,00;0,0299
2737,00;0,0299
2736,00;0,0299
2735,00;0,0299
2734,00;0,0299
2733,00;0,0299
2732,00;0,0299
2731,00;0,0299
2730,00;0,0299
2729,00;0,0299
2728,00;0,0299
2727,00;0,0299
2726,00;0,0299
2725,00;0,0299
2724,00;0,0299
2723,00;0,0299
2722,00;0,0299
2721,00;0,0299
2720,00;0,0299
2719,00;0,0299
2718,00;0,0299
2717,00;0,0299
2716,00;0,0299
2715,00;0,0299
2714,00;0,0299
2713,00;0,0299
2712,00;0,0299
2711,00;0,0299
2710,00;0,0299
2709,00;0,0299
2708,00;0,0299
2707,00;0,0299
2706,00;0,0299
2705,00;0,0299
2704,00;0,0299
2703,00;0,0299
2702,00;0,0299
2701,00;0,0299
2700,00;0,0299
2699,00;0,0299
2698,00;0,0299
2697,00;0,0299
2696,00;0,0299
2695,00;0,0299
2694,00;0,0299
2693,00;0,0299
2692,00;0,0299
2691,00;0,0299
2690,00;0,0299
2689,00;0,0299
2688,00;0,0299
2687,00;0,0299
2686,00;0,0299
2685,00;0,0299
2684,00;0,0299
2683,00;0,0299
2682,00;0,0299
2681,00;0,0299
2680,00;0,0299
2679,00;0,0299
2678,00;0,0299
2677,00;0,0299
2676,00;0,0299
2675,00;0,0299
2674,00;0,0299
2673,00;0,0299
2672,00;0,0299
2671,00;0,0298
2670,00;0,0298
2669,00;0,0299
2668,00;0,0299
2667,00;0,0299
2666,00;0,0299
2665,00;0,0300
2664,00;0,0300
2663,00;0,0300
2662,00;0,0300
2661,00;0,0300
2660,00;0,0300
2659,00;0,0300
2658,00;0,0300
2657,00;0,0300
2656,00;0,0301
2655,00;0,0301
2654,00;0,0301
2653,00;0,0301
2652,00;0,0301
2651,00;0,0301
2650,00;0,0300
2649,00;0,0300
2648,00;0,0300
2647,00;0,0300
2646,00;0,0300
2645,00;0,0300
2644,00;0,0299
2643,00;0,0299
2642,00;0,0299
2641,00;0,0299
2640,00;0,0299
2639,00;0,0299
2638,00;0,0299
2637,00;0,0298
2636,00;0,0298
2635,00;0,0298
2634,00;0,0298
2633,00;0,0297
2632,00;0,0297
2631,00;0,0297
2630,00;0,0298
2629,00;0,0298
2628,00;0,0298
2627,00;0,0297
2626,00;0,0297
2625,00;0,0297
2624,00;0,0297
2623,00;0,0296
2622,00;0,0296
2621,00;0,0296
2620,00;0,0296
2619,00;0,0295
2618,00;0,0295
2617,00;0,0295
2616,00;0,0295
2615,00;0,0295
2614,00;0,0295
2613,00;0,0295
2612,00;0,0295
2611,00;0,0294
2610,00;0,0294
2609,00;0,0294
2608,00;0,0294
2607,00;0,0294
2606,00;0,0294
2605,00;0,0294
2604,00;0,0294
2603,00;0,0294
2602,00;0,0294
2601,00;0,0294
2600,00;0,0293
2599,00;0,0293
2598,00;0,0293
2597,00;0,0293
2596,00;0,0293
2595,00;0,0293
2594,00;0,0293
2593,00;0,0293
2592,00;0,0293
2591,00;0,0293
2590,00;0,0293
2589,00;0,0292
2588,00;0,0292
2587,00;0,0292
2586,00;0,0292
2585,00;0,0292
2584,00;0,0292
2583,00;0,0292
2582,00;0,0291
2581,00;0,0291
2580,00;0,0291
2579,00;0,0291
2578,00;0,0291
2577,00;0,0291
2576,00;0,0291
2575,00;0,0291
2574,00;0,0291
2573,00;0,0290
2572,00;0,0290
2571,00;0,0291
2570,00;0,0291
2569,00;0,0291
2568,00;0,0291
2567,00;0,0290
2566,00;0,0290
2565,00;0,0291
2564,00;0,0291
2563,00;0,0291
2562,00;0,0291
2561,00;0,0291
2560,00;0,0290
2559,00;0,0290
2558,00;0,0290
2557,00;0,0289
2556,00;0,0289
2555,00;0,0289
2554,00;0,0289
2553,00;0,0289
2552,00;0,0289
2551,00;0,0289
2550,00;0,0289
2549,00;0,0289
2548,00;0,0289
2547,00;0,0289
2546,00;0,0289
2545,00;0,0288
2544,00;0,0288
2543,00;0,0288
2542,00;0,0288
2541,00;0,0288
2540,00;0,0288
2539,00;0,0288
2538,00;0,0288
2537,00;0,0288
2536,00;0,0288
2535,00;0,0288
2534,00;0,0288
2533,00;0,0288
2532,00;0,0288
2531,00;0,0288
2530,00;0,0288
2529,00;0,0288
2528,00;0,0288
2527,00;0,0288
2526,00;0,0288
2525,00;0,0288
2524,00;0,0288
2523,00;0,0288
2522,00;0,0288
2521,00;0,0288
2520,00;0,0287
2519,00;0,0287
2518,00;0,0287
2517,00;0,0287
2516,00;0,0288
2515,00;0,0288
2514,00;0,0288
2513,00;0,0288
2512,00;0,0288
2511,00;0,0288
2510,00;0,0287
2509,00;0,0287
2508,00;0,0287
2507,00;0,0287
2506,00;0,0287
2505,00;0,0287
2504,00;0,0287
2503,00;0,0287
2502,00;0,0287
2501,00;0,0287
2500,00;0,0287
2499,00;0,0287
2498,00;0,0287
2497,00;0,0287
2496,00;0,0287
2495,00;0,0287
2494,00;0,0286
2493,00;0,0286
2492,00;0,0286
2491,00;0,0286
2490,00;0,0286
2489,00;0,0287
2488,00;0,0287
2487,00;0,0287
2486,00;0,0287
2485,00;0,0287
2484,00;0,0287
2483,00;0,0287
2482,00;0,0287
2481,00;0,0287
2480,00;0,0287
2479,00;0,0287
2478,00;0,0287
2477,00;0,0287
2476,00;0,0287
2475,00;0,0287
2474,00;0,0287
2473,00;0,0287
2472,00;0,0287
2471,00;0,0287
2470,00;0,0287
2469,00;0,0287
2468,00;0,0287
2467,00;0,0287
2466,00;0,0287
2465,00;0,0287
2464,00;0,0287
2463,00;0,0287
2462,00;0,0287
2461,00;0,0287
2460,00;0,0287
2459,00;0,0287
2458,00;0,0287
2457,00;0,0287
2456,00;0,0287
2455,00;0,0287
2454,00;0,0287
2453,00;0,0287
2452,00;0,0287
2451,00;0,0287
2450,00;0,0287
2449,00;0,0287
2448,00;0,0287
2447,00;0,0287
2446,00;0,0287
2445,00;0,0287
2444,00;0,0287
2443,00;0,0287
2442,00;0,0287
2441,00;0,0287
2440,00;0,0286
2439,00;0,0286
2438,00;0,0286
2437,00;0,0286
2436,00;0,0286
2435,00;0,0286
2434,00;0,0286
2433,00;0,0286
2432,00;0,0286
2431,00;0,0286
2430,00;0,0286
2429,00;0,0286
2428,00;0,0286
2427,00;0,0286
2426,00;0,0286
2425,00;0,0286
2424,00;0,0286
2423,00;0,0286
2422,00;0,0285
2421,00;0,0285
2420,00;0,0285
2419,00;0,0285
2418,00;0,0285
2417,00;0,0285
2416,00;0,0285
2415,00;0,0285
2414,00;0,0285
2413,00;0,0285
2412,00;0,0285
2411,00;0,0285
2410,00;0,0285
2409,00;0,0285
2408,00;0,0285
2407,00;0,0284
2406,00;0,0284
2405,00;0,0284
2404,00;0,0284
2403,00;0,0284
2402,00;0,0284
2401,00;0,0284
2400,00;0,0284
2399,00;0,0284
2398,00;0,0284
2397,00;0,0284
2396,00;0,0284
2395,00;0,0284
2394,00;0,0284
2393,00;0,0284
2392,00;0,0284
2391,00;0,0284
2390,00;0,0284
2389,00;0,0284
2388,00;0,0285
2387,00;0,0284
2386,00;0,0284
2385,00;0,0284
2384,00;0,0284
2383,00;0,0284
2382,00;0,0283
2381,00;0,0283
2380,00;0,0283
2379,00;0,0283
2378,00;0,0283
2377,00;0,0283
2376,00;0,0284
2375,00;0,0284
2374,00;0,0284
2373,00;0,0284
2372,00;0,0284
2371,00;0,0284
2370,00;0,0285
2369,00;0,0285
2368,00;0,0285
2367,00;0,0285
2366,00;0,0285
2365,00;0,0285
2364,00;0,0285
2363,00;0,0285
2362,00;0,0286
2361,00;0,0286
2360,00;0,0286
2359,00;0,0287
2358,00;0,0287
2357,00;0,0288
2356,00;0,0288
2355,00;0,0288
2354,00;0,0288
2353,00;0,0287
2352,00;0,0287
2351,00;0,0288
2350,00;0,0288
2349,00;0,0288
2348,00;0,0288
2347,00;0,0287
2346,00;0,0287
2345,00;0,0288
2344,00;0,0288
2343,00;0,0289
2342,00;0,0289
2341,00;0,0290
2340,00;0,0290
2339,00;0,0290
2338,00;0,0290
2337,00;0,0290
2336,00;0,0291
2335,00;0,0291
2334,00;0,0291
2333,00;0,0290
2332,00;0,0290
2331,00;0,0290
2330,00;0,0291
2329,00;0,0291
2328,00;0,0292
2327,00;0,0293
2326,00;0,0295
2325,00;0,0296
2324,00;0,0297
2323,00;0,0297
2322,00;0,0297
2321,00;0,0296
2320,00;0,0295
2319,00;0,0295
2318,00;0,0294
2317,00;0,0294
2316,00;0,0293
2315,00;0,0293
2314,00;0,0292
2313,00;0,0292
2312,00;0,0292
2311,00;0,0292
2310,00;0,0292
2309,00;0,0292
2308,00;0,0291
2307,00;0,0291
2306,00;0,0290
2305,00;0,0290
2304,00;0,0289
2303,00;0,0289
2302,00;0,0290
2301,00;0,0290
2300,00;0,0290
2299,00;0,0290
2298,00;0,0290
2297,00;0,0291
2296,00;0,0291
2295,00;0,0292
2294,00;0,0292
2293,00;0,0292
2292,00;0,0292
2291,00;0,0292
2290,00;0,0292
2289,00;0,0292
2288,00;0,0293
2287,00;0,0293
2286,00;0,0294
2285,00;0,0294
2284,00;0,0294
2283,00;0,0293
2282,00;0,0293
2281,00;0,0292
2280,00;0,0291
2279,00;0,0290
2278,00;0,0290
2277,00;0,0289
2276,00;0,0289
2275,00;0,0289
2274,00;0,0289
2273,00;0,0288
2272,00;0,0287
2271,00;0,0287
2270,00;0,0287
2269,00;0,0287
2268,00;0,0286
2267,00;0,0286
2266,00;0,0286
2265,00;0,0286
2264,00;0,0286
2263,00;0,0286
2262,00;0,0287
2261,00;0,0287
2260,00;0,0287
2259,00;0,0286
2258,00;0,0286
2257,00;0,0286
2256,00;0,0286
2255,00;0,0285
2254,00;0,0285
2253,00;0,0285
2252,00;0,0285
2251,00;0,0284
2250,00;0,0284
2249,00;0,0284
2248,00;0,0284
2247,00;0,0284
2246,00;0,0285
2245,00;0,0285
2244,00;0,0285
2243,00;0,0285
2242,00;0,0284
2241,00;0,0284
2240,00;0,0284
2239,00;0,0284
2238,00;0,0284
2237,00;0,0284
2236,00;0,0284
2235,00;0,0284
2234,00;0,0284
2233,00;0,0284
2232,00;0,0284
2231,00;0,0284
2230,00;0,0284
2229,00;0,0283
2228,00;0,0283
2227,00;0,0283
2226,00;0,0283
2225,00;0,0283
2224,00;0,0283
2223,00;0,0283
2222,00;0,0283
2221,00;0,0283
2220,00;0,0283
2219,00;0,0283
2218,00;0,0283
2217,00;0,0284
2216,00;0,0284
2215,00;0,0284
2214,00;0,0283
2213,00;0,0283
2212,00;0,0283
2211,00;0,0283
2210,00;0,0283
2209,00;0,0283
2208,00;0,0283
2207,00;0,0283
2206,00;0,0283
2205,00;0,0283
2204,00;0,0283
2203,00;0,0283
2202,00;0,0283
2201,00;0,0283
2200,00;0,0283
2199,00;0,0283
2198,00;0,0283
2197,00;0,0283
2196,00;0,0283
2195,00;0,0283
2194,00;0,0283
2193,00;0,0282
2192,00;0,0282
2191,00;0,0282
2190,00;0,0282
2189,00;0,0282
2188,00;0,0282
2187,00;0,0282
2186,00;0,0282
2185,00;0,0281
2184,00;0,0281
2183,00;0,0281
2182,00;0,0280
2181,00;0,0280
2180,00;0,0279
2179,00;0,0280
2178,00;0,0280
2177,00;0,0280
2176,00;0,0280
2175,00;0,0279
2174,00;0,0278
2173,00;0,0278
2172,00;0,0278
2171,00;0,0278
2170,00;0,0278
2169,00;0,0278
2168,00;0,0277
2167,00;0,0277
2166,00;0,0277
2165,00;0,0277
2164,00;0,0278
2163,00;0,0278
2162,00;0,0277
2161,00;0,0277
2160,00;0,0275
2159,00;0,0272
2158,00;0,0270
2157,00;0,0270
2156,00;0,0270
2155,00;0,0270
2154,00;0,0270
2153,00;0,0269
2152,00;0,0269
2151,00;0,0269
2150,00;0,0270
2149,00;0,0270
2148,00;0,0269
2147,00;0,0269
2146,00;0,0269
2145,00;0,0270
2144,00;0,0271
2143,00;0,0271
2142,00;0,0270
2141,00;0,0270
2140,00;0,0269
2139,00;0,0270
2138,00;0,0269
2137,00;0,0269
2136,00;0,0268
2135,00;0,0268
2134,00;0,0267
2133,00;0,0267
2132,00;0,0268
2131,00;0,0268
2130,00;0,0268
2129,00;0,0269
2128,00;0,0269
2127,00;0,0270
2126,00;0,0270
2125,00;0,0271
2124,00;0,0272
2123,00;0,0272
2122,00;0,0272
2121,00;0,0272
2120,00;0,0272
2119,00;0,0272
2118,00;0,0273
2117,00;0,0274
2116,00;0,0274
2115,00;0,0275
2114,00;0,0275
2113,00;0,0276
2112,00;0,0276
2111,00;0,0276
2110,00;0,0277
2109,00;0,0277
2108,00;0,0278
2107,00;0,0277
2106,00;0,0277
2105,00;0,0277
2104,00;0,0277
2103,00;0,0277
2102,00;0,0277
2101,00;0,0277
2100,00;0,0277
2099,00;0,0277
2098,00;0,0276
2097,00;0,0275
2096,00;0,0275
2095,00;0,0275
2094,00;0,0275
2093,00;0,0275
2092,00;0,0276
2091,00;0,0276
2090,00;0,0276
2089,00;0,0276
2088,00;0,0277
2087,00;0,0277
2086,00;0,0278
2085,00;0,0278
2084,00;0,0279
2083,00;0,0279
2082,00;0,0279
2081,00;0,0279
2080,00;0,0279
2079,00;0,0279
2078,00;0,0279
2077,00;0,0279
2076,00;0,0279
2075,00;0,0278
2074,00;0,0278
2073,00;0,0278
2072,00;0,0278
2071,00;0,0277
2070,00;0,0277
2069,00;0,0277
2068,00;0,0277
2067,00;0,0277
2066,00;0,0278
2065,00;0,0278
2064,00;0,0277
2063,00;0,0277
2062,00;0,0276
2061,00;0,0276
2060,00;0,0277
2059,00;0,0277
2058,00;0,0277
2057,00;0,0278
2056,00;0,0278
2055,00;0,0277
2054,00;0,0277
2053,00;0,0278
2052,00;0,0279
2051,00;0,0279
2050,00;0,0279
2049,00;0,0279
2048,00;0,0278
2047,00;0,0277
2046,00;0,0277
2045,00;0,0276
2044,00;0,0276
2043,00;0,0276
2042,00;0,0276
2041,00;0,0276
2040,00;0,0276
2039,00;0,0276
2038,00;0,0275
2037,00;0,0275
2036,00;0,0275
2035,00;0,0275
2034,00;0,0275
2033,00;0,0275
2032,00;0,0274
2031,00;0,0274
2030,00;0,0274
2029,00;0,0274
2028,00;0,0274
2027,00;0,0274
2026,00;0,0273
2025,00;0,0273
2024,00;0,0273
2023,00;0,0273
2022,00;0,0273
2021,00;0,0273
2020,00;0,0273
2019,00;0,0273
2018,00;0,0273
2017,00;0,0273
2016,00;0,0273
2015,00;0,0273
2014,00;0,0272
2013,00;0,0272
2012,00;0,0272
2011,00;0,0272
2010,00;0,0272
2009,00;0,0272
2008,00;0,0271
2007,00;0,0271
2006,00;0,0271
2005,00;0,0271
2004,00;0,0271
2003,00;0,0271
2002,00;0,0271
2001,00;0,0270
2000,00;0,0270
1999,00;0,0271
1998,00;0,0271
1997,00;0,0271
1996,00;0,0270
1995,00;0,0270
1994,00;0,0270
1993,00;0,0270
1992,00;0,0270
1991,00;0,0270
1990,00;0,0269
1989,00;0,0269
1988,00;0,0269
1987,00;0,0268
1986,00;0,0268
1985,00;0,0268
1984,00;0,0269
1983,00;0,0270
1982,00;0,0270
1981,00;0,0270
1980,00;0,0270
1979,00;0,0268
1978,00;0,0267
1977,00;0,0266
1976,00;0,0265
1975,00;0,0265
1974,00;0,0264
1973,00;0,0264
1972,00;0,0263
1971,00;0,0263
1970,00;0,0264
1969,00;0,0264
1968,00;0,0264
1967,00;0,0264
1966,00;0,0263
1965,00;0,0263
1964,00;0,0262
1963,00;0,0262
1962,00;0,0262
1961,00;0,0263
1960,00;0,0262
1959,00;0,0262
1958,00;0,0262
1957,00;0,0262
1956,00;0,0262
1955,00;0,0262
1954,00;0,0262
1953,00;0,0262
1952,00;0,0262
1951,00;0,0262
1950,00;0,0261
1949,00;0,0261
1948,00;0,0261
1947,00;0,0261
1946,00;0,0261
1945,00;0,0261
1944,00;0,0261
1943,00;0,0261
1942,00;0,0261
1941,00;0,0261
1940,00;0,0261
1939,00;0,0261
1938,00;0,0261
1937,00;0,0261
1936,00;0,0261
1935,00;0,0261
1934,00;0,0261
1933,00;0,0262
1932,00;0,0262
1931,00;0,0262
1930,00;0,0262
1929,00;0,0262
1928,00;0,0262
1927,00;0,0262
1926,00;0,0262
1925,00;0,0262
1924,00;0,0262
1923,00;0,0262
1922,00;0,0262
1921,00;0,0262
1920,00;0,0262
1919,00;0,0262
1918,00;0,0262
1917,00;0,0262
1916,00;0,0262
1915,00;0,0262
1914,00;0,0262
1913,00;0,0262
1912,00;0,0262
1911,00;0,0262
1910,00;0,0262
1909,00;0,0262
1908,00;0,0262
1907,00;0,0262
1906,00;0,0262
1905,00;0,0262
1904,00;0,0262
1903,00;0,0262
1902,00;0,0262
1901,00;0,0262
1900,00;0,0262
1899,00;0,0262
1898,00;0,0262
1897,00;0,0262
1896,00;0,0262
1895,00;0,0262
1894,00;0,0262
1893,00;0,0262
1892,00;0,0262
1891,00;0,0262
1890,00;0,0262
1889,00;0,0262
1888,00;0,0262
1887,00;0,0262
1886,00;0,0262
1885,00;0,0262
1884,00;0,0262
1883,00;0,0262
1882,00;0,0262
1881,00;0,0262
1880,00;0,0262
1879,00;0,0262
1878,00;0,0262
1877,00;0,0262
1876,00;0,0262
1875,00;0,0262
1874,00;0,0262
1873,00;0,0262
1872,00;0,0262
1871,00;0,0261
1870,00;0,0261
1869,00;0,0261
1868,00;0,0261
1867,00;0,0261
1866,00;0,0261
1865,00;0,0261
1864,00;0,0261
1863,00;0,0261
1862,00;0,0260
1861,00;0,0260
1860,00;0,0260
1859,00;0,0260
1858,00;0,0260
1857,00;0,0260
1856,00;0,0260
1855,00;0,0260
1854,00;0,0260
1853,00;0,0260
1852,00;0,0260
1851,00;0,0260
1850,00;0,0260
1849,00;0,0260
1848,00;0,0260
1847,00;0,0260
1846,00;0,0259
1845,00;0,0259
1844,00;0,0259
1843,00;0,0259
1842,00;0,0259
1841,00;0,0259
1840,00;0,0259
1839,00;0,0260
1838,00;0,0260
1837,00;0,0260
1836,00;0,0260
1835,00;0,0260
1834,00;0,0260
1833,00;0,0260
1832,00;0,0260
1831,00;0,0260
1830,00;0,0260
1829,00;0,0260
1828,00;0,0260
1827,00;0,0260
1826,00;0,0260
1825,00;0,0260
1824,00;0,0260
1823,00;0,0260
1822,00;0,0260
1821,00;0,0260
1820,00;0,0259
1819,00;0,0259
1818,00;0,0259
1817,00;0,0259
1816,00;0,0259
1815,00;0,0259
1814,00;0,0260
1813,00;0,0261
1812,00;0,0261
1811,00;0,0262
1810,00;0,0262
1809,00;0,0262
1808,00;0,0262
1807,00;0,0263
1806,00;0,0263
1805,00;0,0264
1804,00;0,0264
1803,00;0,0265
1802,00;0,0265
1801,00;0,0265
1800,00;0,0265
1799,00;0,0266
1798,00;0,0266
1797,00;0,0267
1796,00;0,0267
1795,00;0,0268
1794,00;0,0268
1793,00;0,0269
1792,00;0,0270
1791,00;0,0270
1790,00;0,0271
1789,00;0,0272
1788,00;0,0273
1787,00;0,0273
1786,00;0,0274
1785,00;0,0275
1784,00;0,0276
1783,00;0,0277
1782,00;0,0278
1781,00;0,0279
1780,00;0,0280
1779,00;0,0280
1778,00;0,0281
1777,00;0,0281
1776,00;0,0282
1775,00;0,0282
1774,00;0,0283
1773,00;0,0284
1772,00;0,0285
1771,00;0,0286
1770,00;0,0286
1769,00;0,0286
1768,00;0,0286
1767,00;0,0286
1766,00;0,0287
1765,00;0,0287
1764,00;0,0287
1763,00;0,0288
1762,00;0,0288
1761,00;0,0288
1760,00;0,0288
1759,00;0,0289
1758,00;0,0289
1757,00;0,0289
1756,00;0,0289
1755,00;0,0289
1754,00;0,0290
1753,00;0,0290
1752,00;0,0291
1751,00;0,0291
1750,00;0,0291
1749,00;0,0291
1748,00;0,0291
1747,00;0,0291
1746,00;0,0292
1745,00;0,0293
1744,00;0,0294
1743,00;0,0294
1742,00;0,0296
1741,00;0,0297
1740,00;0,0299
1739,00;0,0301
1738,00;0,0302
1737,00;0,0303
1736,00;0,0304
1735,00;0,0305
1734,00;0,0307
1733,00;0,0308
1732,00;0,0310
1731,00;0,0311
1730,00;0,0312
1729,00;0,0313
1728,00;0,0315
1727,00;0,0316
1726,00;0,0318
1725,00;0,0319
1724,00;0,0320
1723,00;0,0322
1722,00;0,0323
1721,00;0,0323
1720,00;0,0324
1719,00;0,0326
1718,00;0,0328
1717,00;0,0329
1716,00;0,0330
1715,00;0,0331
1714,00;0,0332
1713,00;0,0333
1712,00;0,0333
1711,00;0,0334
1710,00;0,0335
1709,00;0,0335
1708,00;0,0336
1707,00;0,0336
1706,00;0,0336
1705,00;0,0337
1704,00;0,0337
1703,00;0,0337
1702,00;0,0337
1701,00;0,0338
1700,00;0,0337
1699,00;0,0337
1698,00;0,0336
1697,00;0,0336
1696,00;0,0336
1695,00;0,0336
1694,00;0,0336
1693,00;0,0336
1692,00;0,0336
1691,00;0,0335
1690,00;0,0335
1689,00;0,0334
1688,00;0,0333
1687,00;0,0333
1686,00;0,0333
1685,00;0,0332
1684,00;0,0332
1683,00;0,0331
1682,00;0,0330
1681,00;0,0330
1680,00;0,0330
1679,00;0,0330
1678,00;0,0330
1677,00;0,0330
1676,00;0,0330
1675,00;0,0330
1674,00;0,0330
1673,00;0,0330
1672,00;0,0330
1671,00;0,0330
1670,00;0,0330
1669,00;0,0330
1668,00;0,0330
1667,00;0,0330
1666,00;0,0331
1665,00;0,0331
1664,00;0,0331
1663,00;0,0331
1662,00;0,0331
1661,00;0,0332
1660,00;0,0332
1659,00;0,0333
1658,00;0,0333
1657,00;0,0333
1656,00;0,0333
1655,00;0,0333
1654,00;0,0334
1653,00;0,0335
1652,00;0,0336
1651,00;0,0336
1650,00;0,0336
1649,00;0,0336
1648,00;0,0337
1647,00;0,0338
1646,00;0,0339
1645,00;0,0340
1644,00;0,0341
1643,00;0,0343
1642,00;0,0344
1641,00;0,0345
1640,00;0,0345
1639,00;0,0346
1638,00;0,0347
1637,00;0,0347
1636,00;0,0348
1635,00;0,0349
1634,00;0,0351
1633,00;0,0352
1632,00;0,0353
1631,00;0,0354
1630,00;0,0355
1629,00;0,0357
1628,00;0,0358
1627,00;0,0359
1626,00;0,0359
1625,00;0,0360
1624,00;0,0361
1623,00;0,0363
1622,00;0,0364
1621,00;0,0365
1620,00;0,0367
1619,00;0,0368
1618,00;0,0369
1617,00;0,0370
1616,00;0,0371
1615,00;0,0373
1614,00;0,0374
1613,00;0,0375
1612,00;0,0377
1611,00;0,0378
1610,00;0,0379
1609,00;0,0379
1608,00;0,0380
1607,00;0,0381
1606,00;0,0383
1605,00;0,0384
1604,00;0,0385
1603,00;0,0386
1602,00;0,0387
1601,00;0,0387
1600,00;0,0388
1599,00;0,0389
1598,00;0,0390
1597,00;0,0390
1596,00;0,0391
1595,00;0,0392
1594,00;0,0392
1593,00;0,0393
1592,00;0,0393
1591,00;0,0393
1590,00;0,0394
1589,00;0,0394
1588,00;0,0394
1587,00;0,0395
1586,00;0,0395
1585,00;0,0396
1584,00;0,0396
1583,00;0,0396
1582,00;0,0397
1581,00;0,0397
1580,00;0,0397
1579,00;0,0397
1578,00;0,0397
1577,00;0,0397
1576,00;0,0398
1575,00;0,0398
1574,00;0,0398
1573,00;0,0398
1572,00;0,0398
1571,00;0,0398
1570,00;0,0398
1569,00;0,0398
1568,00;0,0398
1567,00;0,0398
1566,00;0,0398
1565,00;0,0398
1564,00;0,0398
1563,00;0,0398
1562,00;0,0398
1561,00;0,0398
1560,00;0,0399
1559,00;0,0398
1558,00;0,0398
1557,00;0,0398
1556,00;0,0399
1555,00;0,0399
1554,00;0,0399
1553,00;0,0399
1552,00;0,0399
1551,00;0,0399
1550,00;0,0399
1549,00;0,0398
1548,00;0,0398
1547,00;0,0398
1546,00;0,0398
1545,00;0,0398
1544,00;0,0398
1543,00;0,0398
1542,00;0,0398
1541,00;0,0398
1540,00;0,0397
1539,00;0,0397
1538,00;0,0398
1537,00;0,0398
1536,00;0,0398
1535,00;0,0398
1534,00;0,0398
1533,00;0,0397
1532,00;0,0397
1531,00;0,0397
1530,00;0,0398
1529,00;0,0398
1528,00;0,0398
1527,00;0,0397
1526,00;0,0397
1525,00;0,0396
1524,00;0,0396
1523,00;0,0396
1522,00;0,0396
1521,00;0,0395
1520,00;0,0395
1519,00;0,0395
1518,00;0,0394
1517,00;0,0394
1516,00;0,0393
1515,00;0,0392
1514,00;0,0392
1513,00;0,0392
1512,00;0,0392
1511,00;0,0391
1510,00;0,0390
1509,00;0,0390
1508,00;0,0388
1507,00;0,0387
1506,00;0,0385
1505,00;0,0385
1504,00;0,0384
1503,00;0,0384
1502,00;0,0383
1501,00;0,0382
1500,00;0,0381
1499,00;0,0380
1498,00;0,0379
1497,00;0,0378
1496,00;0,0378
1495,00;0,0378
1494,00;0,0378
1493,00;0,0378
1492,00;0,0378
1491,00;0,0377
1490,00;0,0376
1489,00;0,0374
1488,00;0,0373
1487,00;0,0372
1486,00;0,0372
1485,00;0,0371
1484,00;0,0371
1483,00;0,0371
1482,00;0,0370
1481,00;0,0369
1480,00;0,0369
1479,00;0,0369
1478,00;0,0369
1477,00;0,0369
1476,00;0,0368
1475,00;0,0368
1474,00;0,0368
1473,00;0,0369
1472,00;0,0370
1471,00;0,0370
1470,00;0,0371
1469,00;0,0372
1468,00;0,0374
1467,00;0,0375
1466,00;0,0376
1465,00;0,0378
1464,00;0,0379
1463,00;0,0381
1462,00;0,0382
1461,00;0,0383
1460,00;0,0384
1459,00;0,0385
1458,00;0,0386
1457,00;0,0386
1456,00;0,0387
1455,00;0,0387
1454,00;0,0388
1453,00;0,0389
1452,00;0,0390
1451,00;0,0390
1450,00;0,0391
1449,00;0,0392
1448,00;0,0393
1447,00;0,0394
1446,00;0,0395
1445,00;0,0395
1444,00;0,0396
1443,00;0,0396
1442,00;0,0396
1441,00;0,0396
1440,00;0,0397
1439,00;0,0398
1438,00;0,0399
1437,00;0,0400
1436,00;0,0400
1435,00;0,0401
1434,00;0,0402
1433,00;0,0402
1432,00;0,0403
1431,00;0,0404
1430,00;0,0404
1429,00;0,0405
1428,00;0,0406
1427,00;0,0407
1426,00;0,0408
1425,00;0,0409
1424,00;0,0410
1423,00;0,0411
1422,00;0,0412
1421,00;0,0413
1420,00;0,0414
1419,00;0,0415
1418,00;0,0416
1417,00;0,0416
1416,00;0,0418
1415,00;0,0419
1414,00;0,0420
1413,00;0,0421
1412,00;0,0421
1411,00;0,0422
1410,00;0,0423
1409,00;0,0423
1408,00;0,0424
1407,00;0,0425
1406,00;0,0425
1405,00;0,0426
1404,00;0,0426
1403,00;0,0427
1402,00;0,0427
1401,00;0,0428
1400,00;0,0428
1399,00;0,0429
1398,00;0,0429
1397,00;0,0429
1396,00;0,0429
1395,00;0,0429
1394,00;0,0429
1393,00;0,0428
1392,00;0,0427
1391,00;0,0427
1390,00;0,0427
1389,00;0,0427
1388,00;0,0427
1387,00;0,0427
1386,00;0,0427
1385,00;0,0427
1384,00;0,0427
1383,00;0,0428
1382,00;0,0428
1381,00;0,0428
1380,00;0,0428
1379,00;0,0428
1378,00;0,0428
1377,00;0,0427
1376,00;0,0426
1375,00;0,0426
1374,00;0,0425
1373,00;0,0424
1372,00;0,0423
1371,00;0,0422
1370,00;0,0420
1369,00;0,0420
1368,00;0,0419
1367,00;0,0418
1366,00;0,0418
1365,00;0,0417
1364,00;0,0417
1363,00;0,0416
1362,00;0,0415
1361,00;0,0414
1360,00;0,0414
1359,00;0,0414
1358,00;0,0413
1357,00;0,0413
1356,00;0,0412
1355,00;0,0412
1354,00;0,0412
1353,00;0,0411
1352,00;0,0411
1351,00;0,0410
1350,00;0,0409
1349,00;0,0408
1348,00;0,0408
1347,00;0,0407
1346,00;0,0407
1345,00;0,0407
1344,00;0,0407
1343,00;0,0407
1342,00;0,0407
1341,00;0,0406
1340,00;0,0406
1339,00;0,0405
1338,00;0,0405
1337,00;0,0404
1336,00;0,0403
1335,00;0,0403
1334,00;0,0402
1333,00;0,0401
1332,00;0,0401
1331,00;0,0400
1330,00;0,0400
1329,00;0,0399
1328,00;0,0399
1327,00;0,0398
1326,00;0,0398
1325,00;0,0397
1324,00;0,0397
1323,00;0,0396
1322,00;0,0396
1321,00;0,0396
1320,00;0,0395
1319,00;0,0395
1318,00;0,0395
1317,00;0,0395
1316,00;0,0394
1315,00;0,0394
1314,00;0,0394
1313,00;0,0394
1312,00;0,0393
1311,00;0,0393
1310,00;0,0393
1309,00;0,0393
1308,00;0,0393
1307,00;0,0393
1306,00;0,0392
1305,00;0,0392
1304,00;0,0392
1303,00;0,0392
1302,00;0,0392
1301,00;0,0392
1300,00;0,0392
1299,00;0,0392
1298,00;0,0391
1297,00;0,0391
1296,00;0,0391
1295,00;0,0391
1294,00;0,0391
1293,00;0,0390
1292,00;0,0390
1291,00;0,0390
1290,00;0,0390
1289,00;0,0390
1288,00;0,0390
1287,00;0,0390
1286,00;0,0390
1285,00;0,0389
1284,00;0,0389
1283,00;0,0389
1282,00;0,0389
1281,00;0,0389
1280,00;0,0389
1279,00;0,0389
1278,00;0,0389
1277,00;0,0389
1276,00;0,0389
1275,00;0,0389
1274,00;0,0389
1273,00;0,0389
1272,00;0,0389
1271,00;0,0388
1270,00;0,0388
1269,00;0,0388
1268,00;0,0389
1267,00;0,0389
1266,00;0,0389
1265,00;0,0390
1264,00;0,0390
1263,00;0,0390
1262,00;0,0390
1261,00;0,0390
1260,00;0,0390
1259,00;0,0390
1258,00;0,0390
1257,00;0,0390
1256,00;0,0390
1255,00;0,0390
1254,00;0,0390
1253,00;0,0390
1252,00;0,0390
1251,00;0,0390
1250,00;0,0390
1249,00;0,0390
1248,00;0,0390
1247,00;0,0389
1246,00;0,0389
1245,00;0,0388
1244,00;0,0388
1243,00;0,0388
1242,00;0,0388
1241,00;0,0388
1240,00;0,0388
1239,00;0,0387
1238,00;0,0387
1237,00;0,0386
1236,00;0,0386
1235,00;0,0385
1234,00;0,0385
1233,00;0,0385
1232,00;0,0385
1231,00;0,0384
1230,00;0,0383
1229,00;0,0383
1228,00;0,0382
1227,00;0,0382
1226,00;0,0381
1225,00;0,0381
1224,00;0,0381
1223,00;0,0381
1222,00;0,0381
1221,00;0,0380
1220,00;0,0380
1219,00;0,0379
1218,00;0,0379
1217,00;0,0378
1216,00;0,0379
1215,00;0,0379
1214,00;0,0379
1213,00;0,0379
1212,00;0,0379
1211,00;0,0379
1210,00;0,0379
1209,00;0,0379
1208,00;0,0380
1207,00;0,0380
1206,00;0,0380
1205,00;0,0380
1204,00;0,0380
1203,00;0,0380
1202,00;0,0380
1201,00;0,0381
1200,00;0,0381
1199,00;0,0382
1198,00;0,0382
1197,00;0,0383
1196,00;0,0383
1195,00;0,0383
1194,00;0,0384
1193,00;0,0384
1192,00;0,0384
1191,00;0,0384
1190,00;0,0384
1189,00;0,0384
1188,00;0,0384
1187,00;0,0384
1186,00;0,0384
1185,00;0,0384
1184,00;0,0384
1183,00;0,0384
1182,00;0,0385
1181,00;0,0386
1180,00;0,0387
1179,00;0,0389
1178,00;0,0389
1177,00;0,0390
1176,00;0,0390
1175,00;0,0391
1174,00;0,0392
1173,00;0,0393
1172,00;0,0394
1171,00;0,0396
1170,00;0,0397
1169,00;0,0398
1168,00;0,0399
1167,00;0,0400
1166,00;0,0401
1165,00;0,0402
1164,00;0,0402
1163,00;0,0402
1162,00;0,0402
1161,00;0,0402
1160,00;0,0402
1159,00;0,0401
1158,00;0,0401
1157,00;0,0401
1156,00;0,0401
1155,00;0,0401
1154,00;0,0401
1153,00;0,0401
1152,00;0,0400
1151,00;0,0399
1150,00;0,0397
1149,00;0,0396
1148,00;0,0395
1147,00;0,0394
1146,00;0,0393
1145,00;0,0392
1144,00;0,0392
1143,00;0,0392
1142,00;0,0392
1141,00;0,0392
1140,00;0,0392
1139,00;0,0392
1138,00;0,0391
1137,00;0,0391
1136,00;0,0391
1135,00;0,0390
1134,00;0,0390
1133,00;0,0389
1132,00;0,0389
1131,00;0,0389
1130,00;0,0388
1129,00;0,0388
1128,00;0,0387
1127,00;0,0387
1126,00;0,0386
1125,00;0,0386
1124,00;0,0385
1123,00;0,0385
1122,00;0,0384
1121,00;0,0383
1120,00;0,0382
1119,00;0,0381
1118,00;0,0380
1117,00;0,0380
1116,00;0,0380
1115,00;0,0379
1114,00;0,0378
1113,00;0,0377
1112,00;0,0377
1111,00;0,0376
1110,00;0,0376
1109,00;0,0377
1108,00;0,0377
1107,00;0,0376
1106,00;0,0376
1105,00;0,0375
1104,00;0,0374
1103,00;0,0374
1102,00;0,0374
1101,00;0,0375
1100,00;0,0375
1099,00;0,0375
1098,00;0,0375
1097,00;0,0375
1096,00;0,0375
1095,00;0,0375
1094,00;0,0375
1093,00;0,0376
1092,00;0,0376
1091,00;0,0376
1090,00;0,0376
1089,00;0,0375
1088,00;0,0375
1087,00;0,0374
1086,00;0,0374
1085,00;0,0374
1084,00;0,0374
1083,00;0,0374
1082,00;0,0373
1081,00;0,0372
1080,00;0,0372
1079,00;0,0372
1078,00;0,0372
1077,00;0,0372
1076,00;0,0371
1075,00;0,0371
1074,00;0,0371
1073,00;0,0371
1072,00;0,0371
1071,00;0,0370
1070,00;0,0369
1069,00;0,0368
1068,00;0,0367
1067,00;0,0366
1066,00;0,0364
1065,00;0,0362
1064,00;0,0361
1063,00;0,0359
1062,00;0,0357
1061,00;0,0356
1060,00;0,0354
1059,00;0,0352
1058,00;0,0351
1057,00;0,0350
1056,00;0,0348
1055,00;0,0347
1054,00;0,0346
1053,00;0,0345
1052,00;0,0343
1051,00;0,0342
1050,00;0,0340
1049,00;0,0338
1048,00;0,0337
1047,00;0,0337
1046,00;0,0336
1045,00;0,0336
1044,00;0,0334
1043,00;0,0333
1042,00;0,0331
1041,00;0,0330
1040,00;0,0329
1039,00;0,0329
1038,00;0,0328
1037,00;0,0327
1036,00;0,0326
1035,00;0,0325
1034,00;0,0324
1033,00;0,0323
1032,00;0,0323
1031,00;0,0323
1030,00;0,0323
1029,00;0,0322
1028,00;0,0321
1027,00;0,0320
1026,00;0,0319
1025,00;0,0318
1024,00;0,0317
1023,00;0,0316
1022,00;0,0316
1021,00;0,0315
1020,00;0,0314
1019,00;0,0313
1018,00;0,0312
1017,00;0,0311
1016,00;0,0310
1015,00;0,0310
1014,00;0,0309
1013,00;0,0309
1012,00;0,0308
1011,00;0,0308
1010,00;0,0308
1009,00;0,0308
1008,00;0,0308
1007,00;0,0308
1006,00;0,0309
1005,00;0,0309
1004,00;0,0309
1003,00;0,0309
1002,00;0,0308
1001,00;0,0308
1000,00;0,0307
999,00;0,0306
998,00;0,0306
997,00;0,0306
996,00;0,0306
995,00;0,0307
994,00;0,0307
993,00;0,0308
992,00;0,0309
991,00;0,0309
990,00;0,0309
989,00;0,0308
988,00;0,0307
987,00;0,0306
986,00;0,0305
985,00;0,0304
984,00;0,0303
983,00;0,0302
982,00;0,0302
981,00;0,0301
980,00;0,0300
979,00;0,0300
978,00;0,0299
977,00;0,0299
976,00;0,0299
975,00;0,0299
974,00;0,0299
973,00;0,0299
972,00;0,0299
971,00;0,0299
970,00;0,0299
969,00;0,0298
968,00;0,0297
967,00;0,0297
966,00;0,0296
965,00;0,0296
964,00;0,0296
963,00;0,0296
962,00;0,0295
961,00;0,0295
960,00;0,0294
959,00;0,0293
958,00;0,0293
957,00;0,0292
956,00;0,0292
955,00;0,0291
954,00;0,0291
953,00;0,0290
952,00;0,0290
951,00;0,0289
950,00;0,0288
949,00;0,0286
948,00;0,0285
947,00;0,0285
946,00;0,0284
945,00;0,0284
944,00;0,0283
943,00;0,0282
942,00;0,0281
941,00;0,0280
940,00;0,0279
939,00;0,0278
938,00;0,0278
937,00;0,0277
936,00;0,0276
935,00;0,0275
934,00;0,0274
933,00;0,0273
932,00;0,0273
931,00;0,0272
930,00;0,0272
929,00;0,0271
928,00;0,0270
927,00;0,0269
926,00;0,0269
925,00;0,0268
924,00;0,0267
923,00;0,0266
922,00;0,0266
921,00;0,0265
920,00;0,0265
919,00;0,0265
918,00;0,0265
917,00;0,0265
916,00;0,0265
915,00;0,0265
914,00;0,0264
913,00;0,0263
912,00;0,0263
911,00;0,0262
910,00;0,0262
909,00;0,0261
908,00;0,0261
907,00;0,0260
906,00;0,0260
905,00;0,0260
904,00;0,0260
903,00;0,0259
902,00;0,0259
901,00;0,0259
900,00;0,0259
899,00;0,0259
898,00;0,0259
897,00;0,0258
896,00;0,0258
895,00;0,0257
894,00;0,0257
893,00;0,0256
892,00;0,0256
891,00;0,0255
890,00;0,0255
889,00;0,0255
888,00;0,0254
887,00;0,0254
886,00;0,0254
885,00;0,0253
884,00;0,0253
883,00;0,0252
882,00;0,0252
881,00;0,0252
880,00;0,0251
879,00;0,0251
878,00;0,0250
877,00;0,0249
876,00;0,0249
875,00;0,0248
874,00;0,0248
873,00;0,0247
872,00;0,0247
871,00;0,0247
870,00;0,0247
869,00;0,0247
868,00;0,0246
867,00;0,0246
866,00;0,0245
865,00;0,0244
864,00;0,0243
863,00;0,0243
862,00;0,0243
861,00;0,0243
860,00;0,0242
859,00;0,0242
858,00;0,0242
857,00;0,0241
856,00;0,0241
855,00;0,0241
854,00;0,0241
853,00;0,0241
852,00;0,0241
851,00;0,0241
850,00;0,0240
849,00;0,0240
848,00;0,0240
847,00;0,0240
846,00;0,0240
845,00;0,0240
844,00;0,0240
843,00;0,0239
842,00;0,0239
841,00;0,0239
840,00;0,0239
839,00;0,0239
838,00;0,0239
837,00;0,0238
836,00;0,0238
835,00;0,0239
834,00;0,0239
833,00;0,0239
832,00;0,0239
831,00;0,0239
830,00;0,0238
829,00;0,0238
828,00;0,0237
827,00;0,0237
826,00;0,0237
825,00;0,0237
824,00;0,0237
823,00;0,0237
822,00;0,0236
821,00;0,0236
820,00;0,0236
819,00;0,0237
818,00;0,0237
817,00;0,0237
816,00;0,0237
815,00;0,0236
814,00;0,0237
813,00;0,0237
812,00;0,0238
811,00;0,0238
810,00;0,0239
809,00;0,0238
808,00;0,0238
807,00;0,0237
806,00;0,0237
805,00;0,0237
804,00;0,0237
803,00;0,0238
802,00;0,0237
801,00;0,0236
800,00;0,0236
799,00;0,0236
798,00;0,0236
797,00;0,0236
796,00;0,0236
795,00;0,0236
794,00;0,0236
793,00;0,0236
792,00;0,0237
791,00;0,0238
790,00;0,0238
789,00;0,0237
788,00;0,0237
787,00;0,0236
786,00;0,0236
785,00;0,0235
784,00;0,0235
783,00;0,0235
782,00;0,0235
781,00;0,0237
780,00;0,0238
779,00;0,0239
778,00;0,0238
777,00;0,0237
776,00;0,0236
775,00;0,0236
774,00;0,0236
773,00;0,0236
772,00;0,0236
771,00;0,0236
770,00;0,0235
769,00;0,0235
768,00;0,0236
767,00;0,0236
766,00;0,0236
765,00;0,0236
764,00;0,0236
763,00;0,0236
762,00;0,0236
761,00;0,0236
760,00;0,0237
759,00;0,0237
758,00;0,0237
757,00;0,0236
756,00;0,0235
755,00;0,0234
754,00;0,0233
753,00;0,0233
752,00;0,0234
751,00;0,0234
750,00;0,0236
749,00;0,0238
748,00;0,0240
747,00;0,0243
746,00;0,0245
745,00;0,0248
744,00;0,0252
743,00;0,0256
742,00;0,0262
741,00;0,0268
740,00;0,0275
739,00;0,0283
738,00;0,0292
737,00;0,0301
736,00;0,0309
735,00;0,0318
734,00;0,0326
733,00;0,0335
732,00;0,0343
731,00;0,0350
730,00;0,0356
729,00;0,0362
728,00;0,0366
727,00;0,0368
726,00;0,0368
725,00;0,0367
724,00;0,0365
723,00;0,0361
722,00;0,0356
721,00;0,0352
720,00;0,0349
719,00;0,0347
718,00;0,0347
717,00;0,0347
716,00;0,0348
715,00;0,0351
714,00;0,0355
713,00;0,0362
712,00;0,0369
711,00;0,0376
710,00;0,0383
709,00;0,0390
708,00;0,0397
707,00;0,0405
706,00;0,0412
705,00;0,0420
704,00;0,0429
703,00;0,0438
702,00;0,0448
701,00;0,0459
700,00;0,0471
699,00;0,0482
698,00;0,0493
697,00;0,0503
696,00;0,0511
695,00;0,0519
694,00;0,0525
693,00;0,0528
692,00;0,0530
691,00;0,0530
690,00;0,0528
689,00;0,0522
688,00;0,0514
687,00;0,0504
686,00;0,0492
685,00;0,0480
684,00;0,0467
683,00;0,0452
682,00;0,0437
681,00;0,0422
680,00;0,0409
679,00;0,0396
678,00;0,0383
677,00;0,0373
676,00;0,0365
675,00;0,0360
674,00;0,0357
673,00;0,0354
672,00;0,0353
671,00;0,0352
670,00;0,0353
669,00;0,0355
668,00;0,0361
667,00;0,0367
666,00;0,0368
665,00;0,0369
664,00;0,0371
663,00;0,0374
662,00;0,0377
661,00;0,0380
660,00;0,0384
659,00;0,0391
658,00;0,0400
657,00;0,0412
656,00;0,0426
655,00;0,0439
654,00;0,0452
653,00;0,0466
652,00;0,0480
651,00;0,0494
650,00;0,0511
649,00;0,0531
648,00;0,0554
647,00;0,0578
646,00;0,0600
645,00;0,0621
644,00;0,0643
643,00;0,0665
642,00;0,0689
641,00;0,0712
640,00;0,0734
639,00;0,0755
638,00;0,0774
637,00;0,0794
636,00;0,0814
635,00;0,0831
634,00;0,0845
633,00;0,0853
632,00;0,0858
631,00;0,0857
630,00;0,0852
629,00;0,0846
628,00;0,0840
627,00;0,0833
626,00;0,0826
625,00;0,0818
624,00;0,0811
623,00;0,0805
622,00;0,0798
621,00;0,0791
620,00;0,0785
619,00;0,0777
618,00;0,0768
617,00;0,0759
616,00;0,0752
615,00;0,0747
614,00;0,0746
613,00;0,0747
612,00;0,0749
611,00;0,0751
610,00;0,0753
609,00;0,0756
608,00;0,0761
607,00;0,0765
606,00;0,0769
605,00;0,0773
604,00;0,0775
603,00;0,0775
602,00;0,0772
601,00;0,0770
600,00;0,0769
599,00;0,0767
598,00;0,0764
597,00;0,0760
596,00;0,0758
595,00;0,0757
594,00;0,0761
593,00;0,0768
592,00;0,0777
591,00;0,0786
590,00;0,0794
589,00;0,0803
588,00;0,0813
587,00;0,0823
586,00;0,0829
585,00;0,0834
584,00;0,0836
583,00;0,0835
582,00;0,0833
581,00;0,0832
580,00;0,0832
579,00;0,0832
578,00;0,0832
577,00;0,0831
576,00;0,0829
575,00;0,0827
574,00;0,0825
573,00;0,0827
572,00;0,0835
571,00;0,0845
570,00;0,0854
569,00;0,0865
568,00;0,0878
567,00;0,0892
566,00;0,0906
565,00;0,0922
564,00;0,0940
563,00;0,0958
562,00;0,0976
561,00;0,0994
560,00;0,1013
559,00;0,1030
558,00;0,1047
557,00;0,1064
556,00;0,1079
555,00;0,1091
554,00;0,1097
553,00;0,1102
552,00;0,1105
551,00;0,1107
550,00;0,1107
549,00;0,1105
548,00;0,1101
547,00;0,1093
546,00;0,1081
545,00;0,1072
544,00;0,1064
543,00;0,1053
542,00;0,1037
541,00;0,1021
540,00;0,1009
539,00;0,0998
538,00;0,0986
537,00;0,0972
536,00;0,0956
535,00;0,0939
534,00;0,0920
533,00;0,0900
532,00;0,0881
531,00;0,0862
530,00;0,0842
529,00;0,0824
528,00;0,0808
527,00;0,0793
526,00;0,0777
525,00;0,0762
524,00;0,0747
523,00;0,0727
522,00;0,0703
521,00;0,0679
520,00;0,0658
519,00;0,0638
518,00;0,0615
517,00;0,0590
516,00;0,0565
515,00;0,0542
514,00;0,0522
513,00;0,0503
512,00;0,0485
511,00;0,0465
510,00;0,0448
509,00;0,0432
508,00;0,0416
507,00;0,0396
506,00;0,0373
505,00;0,0350
504,00;0,0330
503,00;0,0310
502,00;0,0288
501,00;0,0269
500,00;0,0253
499,00;0,0242
498,00;0,0235
497,00;0,0231
496,00;0,0231
495,00;0,0231
494,00;0,0233
493,00;0,0239
492,00;0,0250
491,00;0,0265
490,00;0,0277
489,00;0,0284
488,00;0,0288
487,00;0,0293
486,00;0,0301
485,00;0,0310
484,00;0,0317
483,00;0,0318
482,00;0,0315
481,00;0,0314
480,00;0,0318
479,00;0,0324
478,00;0,0328
477,00;0,0328
476,00;0,0323
475,00;0,0314
474,00;0,0299
473,00;0,0281
472,00;0,0260
471,00;0,0241
470,00;0,0229
469,00;0,0224
468,00;0,0227
467,00;0,0233
466,00;0,0240
465,00;0,0245
464,00;0,0249
463,00;0,0250
462,00;0,0251
461,00;0,0251
460,00;0,0251
459,00;0,0247
458,00;0,0239
457,00;0,0229
456,00;0,0221
455,00;0,0218
454,00;0,0223
453,00;0,0232
452,00;0,0241
451,00;0,0247
450,00;0,0251
