Создан как новый массив данных;Образец 013 полученный BalashovM Дата четверг, апреля 20 2023
cm-1;A
4000,00;0,0016
3999,00;0,0017
3998,00;0,0017
3997,00;0,0017
3996,00;0,0017
3995,00;0,0017
3994,00;0,0017
3993,00;0,0017
3992,00;0,0017
3991,00;0,0017
3990,00;0,0016
3989,00;0,0016
3988,00;0,0016
3987,00;0,0017
3986,00;0,0017
3985,00;0,0017
3984,00;0,0017
3983,00;0,0017
3982,00;0,0017
3981,00;0,0017
3980,00;0,0017
3979,00;0,0017
3978,00;0,0017
3977,00;0,0016
3976,00;0,0016
3975,00;0,0016
3974,00;0,0016
3973,00;0,0016
3972,00;0,0016
3971,00;0,0016
3970,00;0,0016
3969,00;0,0016
3968,00;0,0016
3967,00;0,0016
3966,00;0,0016
3965,00;0,0016
3964,00;0,0015
3963,00;0,0015
3962,00;0,0015
3961,00;0,0016
3960,00;0,0016
3959,00;0,0016
3958,00;0,0016
3957,00;0,0016
3956,00;0,0016
3955,00;0,0016
3954,00;0,0016
3953,00;0,0016
3952,00;0,0016
3951,00;0,0015
3950,00;0,0015
3949,00;0,0015
3948,00;0,0015
3947,00;0,0015
3946,00;0,0015
3945,00;0,0015
3944,00;0,0016
3943,00;0,0016
3942,00;0,0016
3941,00;0,0016
3940,00;0,0016
3939,00;0,0015
3938,00;0,0015
3937,00;0,0015
3936,00;0,0015
3935,00;0,0015
3934,00;0,0015
3933,00;0,0015
3932,00;0,0015
3931,00;0,0015
3930,00;0,0015
3929,00;0,0015
3928,00;0,0015
3927,00;0,0015
3926,00;0,0015
3925,00;0,0015
3924,00;0,0015
3923,00;0,0015
3922,00;0,0015
3921,00;0,0015
3920,00;0,0016
3919,00;0,0016
3918,00;0,0016
3917,00;0,0016
3916,00;0,0015
3915,00;0,0015
3914,00;0,0015
3913,00;0,0015
3912,00;0,0015
3911,00;0,0015
3910,00;0,0015
3909,00;0,0015
3908,00;0,0015
3907,00;0,0014
3906,00;0,0014
3905,00;0,0014
3904,00;0,0014
3903,00;0,0014
3902,00;0,0015
3901,00;0,0015
3900,00;0,0015
3899,00;0,0015
3898,00;0,0015
3897,00;0,0015
3896,00;0,0014
3895,00;0,0014
3894,00;0,0014
3893,00;0,0014
3892,00;0,0014
3891,00;0,0014
3890,00;0,0014
3889,00;0,0014
3888,00;0,0014
3887,00;0,0014
3886,00;0,0014
3885,00;0,0014
3884,00;0,0014
3883,00;0,0014
3882,00;0,0014
3881,00;0,0014
3880,00;0,0014
3879,00;0,0015
3878,00;0,0015
3877,00;0,0014
3876,00;0,0014
3875,00;0,0015
3874,00;0,0015
3873,00;0,0015
3872,00;0,0014
3871,00;0,0014
3870,00;0,0014
3869,00;0,0014
3868,00;0,0015
3867,00;0,0015
3866,00;0,0015
3865,00;0,0015
3864,00;0,0015
3863,00;0,0014
3862,00;0,0014
3861,00;0,0014
3860,00;0,0014
3859,00;0,0014
3858,00;0,0014
3857,00;0,0014
3856,00;0,0015
3855,00;0,0015
3854,00;0,0015
3853,00;0,0015
3852,00;0,0014
3851,00;0,0014
3850,00;0,0014
3849,00;0,0014
3848,00;0,0014
3847,00;0,0013
3846,00;0,0013
3845,00;0,0013
3844,00;0,0014
3843,00;0,0014
3842,00;0,0015
3841,00;0,0015
3840,00;0,0016
3839,00;0,0016
3838,00;0,0015
3837,00;0,0015
3836,00;0,0014
3835,00;0,0014
3834,00;0,0013
3833,00;0,0013
3832,00;0,0013
3831,00;0,0013
3830,00;0,0014
3829,00;0,0014
3828,00;0,0014
3827,00;0,0014
3826,00;0,0014
3825,00;0,0014
3824,00;0,0014
3823,00;0,0014
3822,00;0,0014
3821,00;0,0014
3820,00;0,0014
3819,00;0,0014
3818,00;0,0014
3817,00;0,0015
3816,00;0,0015
3815,00;0,0015
3814,00;0,0015
3813,00;0,0015
3812,00;0,0014
3811,00;0,0014
3810,00;0,0014
3809,00;0,0014
3808,00;0,0014
3807,00;0,0014
3806,00;0,0014
3805,00;0,0014
3804,00;0,0013
3803,00;0,0014
3802,00;0,0014
3801,00;0,0014
3800,00;0,0014
3799,00;0,0014
3798,00;0,0014
3797,00;0,0014
3796,00;0,0013
3795,00;0,0013
3794,00;0,0013
3793,00;0,0013
3792,00;0,0014
3791,00;0,0014
3790,00;0,0014
3789,00;0,0014
3788,00;0,0014
3787,00;0,0014
3786,00;0,0014
3785,00;0,0013
3784,00;0,0013
3783,00;0,0012
3782,00;0,0012
3781,00;0,0012
3780,00;0,0012
3779,00;0,0013
3778,00;0,0013
3777,00;0,0013
3776,00;0,0013
3775,00;0,0014
3774,00;0,0014
3773,00;0,0014
3772,00;0,0014
3771,00;0,0014
3770,00;0,0013
3769,00;0,0013
3768,00;0,0013
3767,00;0,0013
3766,00;0,0013
3765,00;0,0013
3764,00;0,0013
3763,00;0,0013
3762,00;0,0013
3761,00;0,0013
3760,00;0,0014
3759,00;0,0014
3758,00;0,0014
3757,00;0,0014
3756,00;0,0014
3755,00;0,0014
3754,00;0,0013
3753,00;0,0013
3752,00;0,0013
3751,00;0,0013
3750,00;0,0013
3749,00;0,0013
3748,00;0,0013
3747,00;0,0014
3746,00;0,0014
3745,00;0,0014
3744,00;0,0014
3743,00;0,0013
3742,00;0,0013
3741,00;0,0013
3740,00;0,0013
3739,00;0,0013
3738,00;0,0013
3737,00;0,0013
3736,00;0,0013
3735,00;0,0014
3734,00;0,0014
3733,00;0,0014
3732,00;0,0014
3731,00;0,0014
3730,00;0,0013
3729,00;0,0012
3728,00;0,0012
3727,00;0,0012
3726,00;0,0012
3725,00;0,0012
3724,00;0,0013
3723,00;0,0013
3722,00;0,0013
3721,00;0,0013
3720,00;0,0013
3719,00;0,0013
3718,00;0,0013
3717,00;0,0013
3716,00;0,0013
3715,00;0,0013
3714,00;0,0013
3713,00;0,0013
3712,00;0,0013
3711,00;0,0013
3710,00;0,0013
3709,00;0,0013
3708,00;0,0013
3707,00;0,0013
3706,00;0,0013
3705,00;0,0013
3704,00;0,0014
3703,00;0,0014
3702,00;0,0014
3701,00;0,0013
3700,00;0,0013
3699,00;0,0012
3698,00;0,0012
3697,00;0,0012
3696,00;0,0013
3695,00;0,0013
3694,00;0,0013
3693,00;0,0014
3692,00;0,0014
3691,00;0,0014
3690,00;0,0015
3689,00;0,0015
3688,00;0,0015
3687,00;0,0015
3686,00;0,0015
3685,00;0,0015
3684,00;0,0014
3683,00;0,0014
3682,00;0,0014
3681,00;0,0014
3680,00;0,0014
3679,00;0,0014
3678,00;0,0014
3677,00;0,0015
3676,00;0,0016
3675,00;0,0016
3674,00;0,0016
3673,00;0,0016
3672,00;0,0016
3671,00;0,0016
3670,00;0,0016
3669,00;0,0016
3668,00;0,0016
3667,00;0,0016
3666,00;0,0016
3665,00;0,0017
3664,00;0,0017
3663,00;0,0017
3662,00;0,0017
3661,00;0,0017
3660,00;0,0017
3659,00;0,0018
3658,00;0,0018
3657,00;0,0018
3656,00;0,0018
3655,00;0,0018
3654,00;0,0018
3653,00;0,0018
3652,00;0,0019
3651,00;0,0019
3650,00;0,0020
3649,00;0,0021
3648,00;0,0021
3647,00;0,0021
3646,00;0,0020
3645,00;0,0020
3644,00;0,0020
3643,00;0,0020
3642,00;0,0020
3641,00;0,0021
3640,00;0,0021
3639,00;0,0021
3638,00;0,0021
3637,00;0,0021
3636,00;0,0021
3635,00;0,0021
3634,00;0,0021
3633,00;0,0021
3632,00;0,0021
3631,00;0,0021
3630,00;0,0021
3629,00;0,0021
3628,00;0,0022
3627,00;0,0022
3626,00;0,0023
3625,00;0,0023
3624,00;0,0023
3623,00;0,0023
3622,00;0,0023
3621,00;0,0023
3620,00;0,0023
3619,00;0,0024
3618,00;0,0024
3617,00;0,0024
3616,00;0,0024
3615,00;0,0025
3614,00;0,0025
3613,00;0,0025
3612,00;0,0026
3611,00;0,0026
3610,00;0,0027
3609,00;0,0027
3608,00;0,0026
3607,00;0,0026
3606,00;0,0026
3605,00;0,0026
3604,00;0,0026
3603,00;0,0026
3602,00;0,0026
3601,00;0,0026
3600,00;0,0026
3599,00;0,0027
3598,00;0,0027
3597,00;0,0027
3596,00;0,0028
3595,00;0,0028
3594,00;0,0028
3593,00;0,0029
3592,00;0,0029
3591,00;0,0029
3590,00;0,0029
3589,00;0,0029
3588,00;0,0030
3587,00;0,0030
3586,00;0,0031
3585,00;0,0031
3584,00;0,0031
3583,00;0,0031
3582,00;0,0030
3581,00;0,0030
3580,00;0,0030
3579,00;0,0031
3578,00;0,0032
3577,00;0,0033
3576,00;0,0033
3575,00;0,0033
3574,00;0,0033
3573,00;0,0033
3572,00;0,0034
3571,00;0,0034
3570,00;0,0034
3569,00;0,0034
3568,00;0,0035
3567,00;0,0035
3566,00;0,0035
3565,00;0,0035
3564,00;0,0036
3563,00;0,0036
3562,00;0,0036
3561,00;0,0037
3560,00;0,0037
3559,00;0,0038
3558,00;0,0038
3557,00;0,0038
3556,00;0,0038
3555,00;0,0039
3554,00;0,0039
3553,00;0,0039
3552,00;0,0039
3551,00;0,0040
3550,00;0,0040
3549,00;0,0041
3548,00;0,0041
3547,00;0,0041
3546,00;0,0042
3545,00;0,0043
3544,00;0,0043
3543,00;0,0043
3542,00;0,0044
3541,00;0,0044
3540,00;0,0044
3539,00;0,0044
3538,00;0,0044
3537,00;0,0044
3536,00;0,0044
3535,00;0,0045
3534,00;0,0045
3533,00;0,0045
3532,00;0,0045
3531,00;0,0045
3530,00;0,0045
3529,00;0,0045
3528,00;0,0045
3527,00;0,0045
3526,00;0,0045
3525,00;0,0046
3524,00;0,0046
3523,00;0,0047
3522,00;0,0047
3521,00;0,0048
3520,00;0,0048
3519,00;0,0048
3518,00;0,0048
3517,00;0,0048
3516,00;0,0048
3515,00;0,0048
3514,00;0,0049
3513,00;0,0050
3512,00;0,0050
3511,00;0,0050
3510,00;0,0050
3509,00;0,0050
3508,00;0,0050
3507,00;0,0050
3506,00;0,0050
3505,00;0,0051
3504,00;0,0051
3503,00;0,0051
3502,00;0,0051
3501,00;0,0052
3500,00;0,0052
3499,00;0,0052
3498,00;0,0053
3497,00;0,0053
3496,00;0,0053
3495,00;0,0053
3494,00;0,0053
3493,00;0,0053
3492,00;0,0054
3491,00;0,0054
3490,00;0,0054
3489,00;0,0055
3488,00;0,0055
3487,00;0,0056
3486,00;0,0056
3485,00;0,0057
3484,00;0,0057
3483,00;0,0057
3482,00;0,0057
3481,00;0,0057
3480,00;0,0057
3479,00;0,0057
3478,00;0,0057
3477,00;0,0058
3476,00;0,0058
3475,00;0,0059
3474,00;0,0059
3473,00;0,0058
3472,00;0,0058
3471,00;0,0058
3470,00;0,0058
3469,00;0,0058
3468,00;0,0059
3467,00;0,0059
3466,00;0,0059
3465,00;0,0059
3464,00;0,0060
3463,00;0,0060
3462,00;0,0061
3461,00;0,0061
3460,00;0,0062
3459,00;0,0062
3458,00;0,0062
3457,00;0,0063
3456,00;0,0063
3455,00;0,0063
3454,00;0,0063
3453,00;0,0063
3452,00;0,0063
3451,00;0,0064
3450,00;0,0064
3449,00;0,0064
3448,00;0,0064
3447,00;0,0064
3446,00;0,0064
3445,00;0,0065
3444,00;0,0065
3443,00;0,0066
3442,00;0,0066
3441,00;0,0066
3440,00;0,0065
3439,00;0,0065
3438,00;0,0065
3437,00;0,0065
3436,00;0,0065
3435,00;0,0066
3434,00;0,0066
3433,00;0,0067
3432,00;0,0067
3431,00;0,0067
3430,00;0,0068
3429,00;0,0068
3428,00;0,0068
3427,00;0,0069
3426,00;0,0070
3425,00;0,0070
3424,00;0,0071
3423,00;0,0071
3422,00;0,0071
3421,00;0,0072
3420,00;0,0072
3419,00;0,0072
3418,00;0,0073
3417,00;0,0073
3416,00;0,0073
3415,00;0,0072
3414,00;0,0072
3413,00;0,0072
3412,00;0,0072
3411,00;0,0072
3410,00;0,0071
3409,00;0,0071
3408,00;0,0071
3407,00;0,0071
3406,00;0,0071
3405,00;0,0071
3404,00;0,0071
3403,00;0,0071
3402,00;0,0071
3401,00;0,0071
3400,00;0,0071
3399,00;0,0072
3398,00;0,0072
3397,00;0,0072
3396,00;0,0073
3395,00;0,0072
3394,00;0,0072
3393,00;0,0072
3392,00;0,0072
3391,00;0,0073
3390,00;0,0074
3389,00;0,0075
3388,00;0,0075
3387,00;0,0076
3386,00;0,0075
3385,00;0,0075
3384,00;0,0075
3383,00;0,0076
3382,00;0,0076
3381,00;0,0076
3380,00;0,0076
3379,00;0,0076
3378,00;0,0076
3377,00;0,0076
3376,00;0,0077
3375,00;0,0077
3374,00;0,0076
3373,00;0,0076
3372,00;0,0076
3371,00;0,0075
3370,00;0,0075
3369,00;0,0076
3368,00;0,0076
3367,00;0,0077
3366,00;0,0077
3365,00;0,0078
3364,00;0,0078
3363,00;0,0078
3362,00;0,0078
3361,00;0,0079
3360,00;0,0079
3359,00;0,0079
3358,00;0,0079
3357,00;0,0080
3356,00;0,0080
3355,00;0,0079
3354,00;0,0079
3353,00;0,0079
3352,00;0,0079
3351,00;0,0079
3350,00;0,0079
3349,00;0,0080
3348,00;0,0080
3347,00;0,0080
3346,00;0,0080
3345,00;0,0080
3344,00;0,0080
3343,00;0,0080
3342,00;0,0080
3341,00;0,0080
3340,00;0,0079
3339,00;0,0080
3338,00;0,0080
3337,00;0,0080
3336,00;0,0080
3335,00;0,0080
3334,00;0,0081
3333,00;0,0081
3332,00;0,0081
3331,00;0,0081
3330,00;0,0081
3329,00;0,0081
3328,00;0,0081
3327,00;0,0081
3326,00;0,0081
3325,00;0,0082
3324,00;0,0082
3323,00;0,0083
3322,00;0,0084
3321,00;0,0084
3320,00;0,0084
3319,00;0,0084
3318,00;0,0084
3317,00;0,0084
3316,00;0,0084
3315,00;0,0084
3314,00;0,0083
3313,00;0,0083
3312,00;0,0083
3311,00;0,0083
3310,00;0,0083
3309,00;0,0083
3308,00;0,0083
3307,00;0,0084
3306,00;0,0084
3305,00;0,0085
3304,00;0,0085
3303,00;0,0086
3302,00;0,0086
3301,00;0,0086
3300,00;0,0086
3299,00;0,0085
3298,00;0,0085
3297,00;0,0085
3296,00;0,0085
3295,00;0,0085
3294,00;0,0086
3293,00;0,0086
3292,00;0,0087
3291,00;0,0087
3290,00;0,0087
3289,00;0,0088
3288,00;0,0088
3287,00;0,0088
3286,00;0,0088
3285,00;0,0088
3284,00;0,0088
3283,00;0,0088
3282,00;0,0089
3281,00;0,0089
3280,00;0,0090
3279,00;0,0090
3278,00;0,0089
3277,00;0,0089
3276,00;0,0088
3275,00;0,0088
3274,00;0,0088
3273,00;0,0089
3272,00;0,0089
3271,00;0,0090
3270,00;0,0090
3269,00;0,0090
3268,00;0,0091
3267,00;0,0092
3266,00;0,0092
3265,00;0,0093
3264,00;0,0093
3263,00;0,0093
3262,00;0,0094
3261,00;0,0094
3260,00;0,0094
3259,00;0,0094
3258,00;0,0094
3257,00;0,0093
3256,00;0,0093
3255,00;0,0094
3254,00;0,0094
3253,00;0,0095
3252,00;0,0095
3251,00;0,0095
3250,00;0,0095
3249,00;0,0095
3248,00;0,0095
3247,00;0,0096
3246,00;0,0096
3245,00;0,0097
3244,00;0,0097
3243,00;0,0098
3242,00;0,0099
3241,00;0,0099
3240,00;0,0100
3239,00;0,0100
3238,00;0,0100
3237,00;0,0100
3236,00;0,0099
3235,00;0,0099
3234,00;0,0098
3233,00;0,0099
3232,00;0,0100
3231,00;0,0102
3230,00;0,0103
3229,00;0,0104
3228,00;0,0104
3227,00;0,0104
3226,00;0,0104
3225,00;0,0104
3224,00;0,0104
3223,00;0,0104
3222,00;0,0104
3221,00;0,0105
3220,00;0,0105
3219,00;0,0105
3218,00;0,0106
3217,00;0,0106
3216,00;0,0107
3215,00;0,0107
3214,00;0,0108
3213,00;0,0108
3212,00;0,0109
3211,00;0,0109
3210,00;0,0109
3209,00;0,0109
3208,00;0,0110
3207,00;0,0110
3206,00;0,0111
3205,00;0,0111
3204,00;0,0111
3203,00;0,0111
3202,00;0,0111
3201,00;0,0112
3200,00;0,0112
3199,00;0,0112
3198,00;0,0113
3197,00;0,0113
3196,00;0,0113
3195,00;0,0112
3194,00;0,0112
3193,00;0,0112
3192,00;0,0112
3191,00;0,0113
3190,00;0,0114
3189,00;0,0114
3188,00;0,0115
3187,00;0,0115
3186,00;0,0115
3185,00;0,0115
3184,00;0,0115
3183,00;0,0115
3182,00;0,0115
3181,00;0,0115
3180,00;0,0115
3179,00;0,0115
3178,00;0,0115
3177,00;0,0116
3176,00;0,0116
3175,00;0,0116
3174,00;0,0116
3173,00;0,0116
3172,00;0,0116
3171,00;0,0116
3170,00;0,0116
3169,00;0,0116
3168,00;0,0116
3167,00;0,0115
3166,00;0,0115
3165,00;0,0115
3164,00;0,0116
3163,00;0,0116
3162,00;0,0116
3161,00;0,0115
3160,00;0,0115
3159,00;0,0115
3158,00;0,0115
3157,00;0,0115
3156,00;0,0114
3155,00;0,0114
3154,00;0,0113
3153,00;0,0113
3152,00;0,0113
3151,00;0,0114
3150,00;0,0115
3149,00;0,0116
3148,00;0,0116
3147,00;0,0117
3146,00;0,0117
3145,00;0,0117
3144,00;0,0116
3143,00;0,0116
3142,00;0,0115
3141,00;0,0114
3140,00;0,0114
3139,00;0,0114
3138,00;0,0115
3137,00;0,0116
3136,00;0,0116
3135,00;0,0117
3134,00;0,0117
3133,00;0,0117
3132,00;0,0117
3131,00;0,0117
3130,00;0,0117
3129,00;0,0117
3128,00;0,0118
3127,00;0,0119
3126,00;0,0119
3125,00;0,0119
3124,00;0,0118
3123,00;0,0117
3122,00;0,0116
3121,00;0,0116
3120,00;0,0116
3119,00;0,0116
3118,00;0,0116
3117,00;0,0116
3116,00;0,0117
3115,00;0,0119
3114,00;0,0120
3113,00;0,0121
3112,00;0,0121
3111,00;0,0121
3110,00;0,0121
3109,00;0,0121
3108,00;0,0121
3107,00;0,0122
3106,00;0,0123
3105,00;0,0124
3104,00;0,0124
3103,00;0,0125
3102,00;0,0125
3101,00;0,0125
3100,00;0,0125
3099,00;0,0125
3098,00;0,0126
3097,00;0,0126
3096,00;0,0126
3095,00;0,0126
3094,00;0,0126
3093,00;0,0126
3092,00;0,0126
3091,00;0,0126
3090,00;0,0126
3089,00;0,0126
3088,00;0,0126
3087,00;0,0126
3086,00;0,0126
3085,00;0,0126
3084,00;0,0126
3083,00;0,0126
3082,00;0,0126
3081,00;0,0126
3080,00;0,0126
3079,00;0,0126
3078,00;0,0127
3077,00;0,0129
3076,00;0,0131
3075,00;0,0132
3074,00;0,0133
3073,00;0,0134
3072,00;0,0134
3071,00;0,0134
3070,00;0,0133
3069,00;0,0133
3068,00;0,0133
3067,00;0,0133
3066,00;0,0134
3065,00;0,0136
3064,00;0,0137
3063,00;0,0137
3062,00;0,0138
3061,00;0,0138
3060,00;0,0138
3059,00;0,0138
3058,00;0,0138
3057,00;0,0138
3056,00;0,0138
3055,00;0,0138
3054,00;0,0138
3053,00;0,0138
3052,00;0,0138
3051,00;0,0139
3050,00;0,0140
3049,00;0,0141
3048,00;0,0141
3047,00;0,0142
3046,00;0,0141
3045,00;0,0141
3044,00;0,0141
3043,00;0,0142
3042,00;0,0143
3041,00;0,0144
3040,00;0,0146
3039,00;0,0148
3038,00;0,0149
3037,00;0,0149
3036,00;0,0150
3035,00;0,0151
3034,00;0,0152
3033,00;0,0154
3032,00;0,0156
3031,00;0,0158
3030,00;0,0160
3029,00;0,0163
3028,00;0,0165
3027,00;0,0166
3026,00;0,0169
3025,00;0,0171
3024,00;0,0175
3023,00;0,0179
3022,00;0,0183
3021,00;0,0187
3020,00;0,0192
3019,00;0,0198
3018,00;0,0204
3017,00;0,0211
3016,00;0,0219
3015,00;0,0228
3014,00;0,0237
3013,00;0,0247
3012,00;0,0256
3011,00;0,0265
3010,00;0,0273
3009,00;0,0280
3008,00;0,0286
3007,00;0,0289
3006,00;0,0291
3005,00;0,0292
3004,00;0,0290
3003,00;0,0287
3002,00;0,0282
3001,00;0,0275
3000,00;0,0268
2999,00;0,0260
2998,00;0,0252
2997,00;0,0245
2996,00;0,0238
2995,00;0,0233
2994,00;0,0229
2993,00;0,0226
2992,00;0,0224
2991,00;0,0223
2990,00;0,0223
2989,00;0,0224
2988,00;0,0226
2987,00;0,0229
2986,00;0,0232
2985,00;0,0237
2984,00;0,0242
2983,00;0,0247
2982,00;0,0254
2981,00;0,0262
2980,00;0,0270
2979,00;0,0280
2978,00;0,0290
2977,00;0,0302
2976,00;0,0315
2975,00;0,0329
2974,00;0,0345
2973,00;0,0363
2972,00;0,0383
2971,00;0,0405
2970,00;0,0428
2969,00;0,0454
2968,00;0,0481
2967,00;0,0509
2966,00;0,0539
2965,00;0,0570
2964,00;0,0601
2963,00;0,0631
2962,00;0,0660
2961,00;0,0687
2960,00;0,0711
2959,00;0,0733
2958,00;0,0752
2957,00;0,0767
2956,00;0,0779
2955,00;0,0787
2954,00;0,0792
2953,00;0,0794
2952,00;0,0794
2951,00;0,0795
2950,00;0,0798
2949,00;0,0805
2948,00;0,0816
2947,00;0,0833
2946,00;0,0856
2945,00;0,0885
2944,00;0,0919
2943,00;0,0959
2942,00;0,1005
2941,00;0,1056
2940,00;0,1112
2939,00;0,1173
2938,00;0,1239
2937,00;0,1310
2936,00;0,1385
2935,00;0,1463
2934,00;0,1545
2933,00;0,1628
2932,00;0,1713
2931,00;0,1799
2930,00;0,1883
2929,00;0,1965
2928,00;0,2043
2927,00;0,2114
2926,00;0,2176
2925,00;0,2227
2924,00;0,2262
2923,00;0,2281
2922,00;0,2280
2921,00;0,2261
2920,00;0,2222
2919,00;0,2167
2918,00;0,2099
2917,00;0,2022
2916,00;0,1940
2915,00;0,1856
2914,00;0,1772
2913,00;0,1692
2912,00;0,1616
2911,00;0,1545
2910,00;0,1479
2909,00;0,1419
2908,00;0,1362
2907,00;0,1311
2906,00;0,1262
2905,00;0,1217
2904,00;0,1175
2903,00;0,1135
2902,00;0,1098
2901,00;0,1062
2900,00;0,1027
2899,00;0,0994
2898,00;0,0961
2897,00;0,0930
2896,00;0,0900
2895,00;0,0870
2894,00;0,0841
2893,00;0,0813
2892,00;0,0786
2891,00;0,0759
2890,00;0,0734
2889,00;0,0710
2888,00;0,0688
2887,00;0,0668
2886,00;0,0650
2885,00;0,0634
2884,00;0,0621
2883,00;0,0611
2882,00;0,0604
2881,00;0,0601
2880,00;0,0602
2879,00;0,0607
2878,00;0,0616
2877,00;0,0629
2876,00;0,0644
2875,00;0,0661
2874,00;0,0679
2873,00;0,0694
2872,00;0,0707
2871,00;0,0718
2870,00;0,0727
2869,00;0,0738
2868,00;0,0752
2867,00;0,0774
2866,00;0,0805
2865,00;0,0845
2864,00;0,0896
2863,00;0,0955
2862,00;0,1025
2861,00;0,1102
2860,00;0,1185
2859,00;0,1272
2858,00;0,1359
2857,00;0,1442
2856,00;0,1514
2855,00;0,1569
2854,00;0,1601
2853,00;0,1607
2852,00;0,1585
2851,00;0,1535
2850,00;0,1462
2849,00;0,1372
2848,00;0,1270
2847,00;0,1164
2846,00;0,1057
2845,00;0,0956
2844,00;0,0861
2843,00;0,0776
2842,00;0,0702
2841,00;0,0638
2840,00;0,0584
2839,00;0,0539
2838,00;0,0501
2837,00;0,0469
2836,00;0,0441
2835,00;0,0417
2834,00;0,0395
2833,00;0,0375
2832,00;0,0357
2831,00;0,0340
2830,00;0,0325
2829,00;0,0311
2828,00;0,0297
2827,00;0,0285
2826,00;0,0274
2825,00;0,0264
2824,00;0,0255
2823,00;0,0247
2822,00;0,0240
2821,00;0,0233
2820,00;0,0227
2819,00;0,0221
2818,00;0,0216
2817,00;0,0211
2816,00;0,0206
2815,00;0,0202
2814,00;0,0198
2813,00;0,0194
2812,00;0,0190
2811,00;0,0186
2810,00;0,0183
2809,00;0,0180
2808,00;0,0178
2807,00;0,0175
2806,00;0,0172
2805,00;0,0170
2804,00;0,0167
2803,00;0,0165
2802,00;0,0162
2801,00;0,0160
2800,00;0,0157
2799,00;0,0155
2798,00;0,0153
2797,00;0,0151
2796,00;0,0149
2795,00;0,0148
2794,00;0,0146
2793,00;0,0145
2792,00;0,0143
2791,00;0,0141
2790,00;0,0140
2789,00;0,0138
2788,00;0,0137
2787,00;0,0135
2786,00;0,0134
2785,00;0,0133
2784,00;0,0132
2783,00;0,0131
2782,00;0,0129
2781,00;0,0127
2780,00;0,0126
2779,00;0,0125
2778,00;0,0124
2777,00;0,0123
2776,00;0,0122
2775,00;0,0121
2774,00;0,0121
2773,00;0,0120
2772,00;0,0119
2771,00;0,0119
2770,00;0,0118
2769,00;0,0117
2768,00;0,0117
2767,00;0,0116
2766,00;0,0116
2765,00;0,0116
2764,00;0,0116
2763,00;0,0115
2762,00;0,0115
2761,00;0,0115
2760,00;0,0114
2759,00;0,0114
2758,00;0,0114
2757,00;0,0114
2756,00;0,0113
2755,00;0,0113
2754,00;0,0112
2753,00;0,0112
2752,00;0,0112
2751,00;0,0112
2750,00;0,0112
2749,00;0,0111
2748,00;0,0112
2747,00;0,0112
2746,00;0,0112
2745,00;0,0112
2744,00;0,0112
2743,00;0,0112
2742,00;0,0112
2741,00;0,0112
2740,00;0,0112
2739,00;0,0112
2738,00;0,0112
2737,00;0,0112
2736,00;0,0112
2735,00;0,0112
2734,00;0,0112
2733,00;0,0112
2732,00;0,0112
2731,00;0,0112
2730,00;0,0112
2729,00;0,0111
2728,00;0,0111
2727,00;0,0111
2726,00;0,0111
2725,00;0,0110
2724,00;0,0110
2723,00;0,0110
2722,00;0,0109
2721,00;0,0109
2720,00;0,0109
2719,00;0,0109
2718,00;0,0108
2717,00;0,0108
2716,00;0,0108
2715,00;0,0108
2714,00;0,0107
2713,00;0,0107
2712,00;0,0107
2711,00;0,0107
2710,00;0,0107
2709,00;0,0107
2708,00;0,0106
2707,00;0,0106
2706,00;0,0106
2705,00;0,0106
2704,00;0,0106
2703,00;0,0106
2702,00;0,0106
2701,00;0,0106
2700,00;0,0107
2699,00;0,0107
2698,00;0,0107
2697,00;0,0108
2696,00;0,0108
2695,00;0,0108
2694,00;0,0108
2693,00;0,0109
2692,00;0,0109
2691,00;0,0110
2690,00;0,0111
2689,00;0,0111
2688,00;0,0112
2687,00;0,0112
2686,00;0,0112
2685,00;0,0113
2684,00;0,0113
2683,00;0,0113
2682,00;0,0113
2681,00;0,0113
2680,00;0,0113
2679,00;0,0114
2678,00;0,0114
2677,00;0,0114
2676,00;0,0115
2675,00;0,0115
2674,00;0,0115
2673,00;0,0114
2672,00;0,0114
2671,00;0,0114
2670,00;0,0114
2669,00;0,0114
2668,00;0,0113
2667,00;0,0113
2666,00;0,0113
2665,00;0,0112
2664,00;0,0112
2663,00;0,0111
2662,00;0,0111
2661,00;0,0110
2660,00;0,0109
2659,00;0,0109
2658,00;0,0109
2657,00;0,0108
2656,00;0,0108
2655,00;0,0107
2654,00;0,0107
2653,00;0,0106
2652,00;0,0106
2651,00;0,0106
2650,00;0,0106
2649,00;0,0105
2648,00;0,0105
2647,00;0,0105
2646,00;0,0104
2645,00;0,0104
2644,00;0,0104
2643,00;0,0103
2642,00;0,0103
2641,00;0,0102
2640,00;0,0102
2639,00;0,0102
2638,00;0,0101
2637,00;0,0101
2636,00;0,0101
2635,00;0,0101
2634,00;0,0101
2633,00;0,0100
2632,00;0,0100
2631,00;0,0099
2630,00;0,0099
2629,00;0,0098
2628,00;0,0098
2627,00;0,0098
2626,00;0,0098
2625,00;0,0098
2624,00;0,0098
2623,00;0,0097
2622,00;0,0097
2621,00;0,0096
2620,00;0,0096
2619,00;0,0095
2618,00;0,0095
2617,00;0,0095
2616,00;0,0094
2615,00;0,0094
2614,00;0,0094
2613,00;0,0094
2612,00;0,0095
2611,00;0,0095
2610,00;0,0094
2609,00;0,0094
2608,00;0,0093
2607,00;0,0092
2606,00;0,0091
2605,00;0,0091
2604,00;0,0090
2603,00;0,0090
2602,00;0,0091
2601,00;0,0092
2600,00;0,0092
2599,00;0,0092
2598,00;0,0092
2597,00;0,0092
2596,00;0,0091
2595,00;0,0091
2594,00;0,0090
2593,00;0,0090
2592,00;0,0089
2591,00;0,0090
2590,00;0,0090
2589,00;0,0089
2588,00;0,0089
2587,00;0,0089
2586,00;0,0089
2585,00;0,0089
2584,00;0,0088
2583,00;0,0088
2582,00;0,0088
2581,00;0,0087
2580,00;0,0087
2579,00;0,0087
2578,00;0,0086
2577,00;0,0086
2576,00;0,0085
2575,00;0,0085
2574,00;0,0085
2573,00;0,0084
2572,00;0,0084
2571,00;0,0084
2570,00;0,0083
2569,00;0,0083
2568,00;0,0083
2567,00;0,0082
2566,00;0,0082
2565,00;0,0082
2564,00;0,0082
2563,00;0,0082
2562,00;0,0082
2561,00;0,0081
2560,00;0,0081
2559,00;0,0081
2558,00;0,0080
2557,00;0,0080
2556,00;0,0080
2555,00;0,0079
2554,00;0,0079
2553,00;0,0079
2552,00;0,0079
2551,00;0,0079
2550,00;0,0079
2549,00;0,0079
2548,00;0,0079
2547,00;0,0079
2546,00;0,0079
2545,00;0,0079
2544,00;0,0078
2543,00;0,0077
2542,00;0,0076
2541,00;0,0076
2540,00;0,0076
2539,00;0,0075
2538,00;0,0075
2537,00;0,0075
2536,00;0,0074
2535,00;0,0074
2534,00;0,0073
2533,00;0,0073
2532,00;0,0072
2531,00;0,0072
2530,00;0,0072
2529,00;0,0072
2528,00;0,0073
2527,00;0,0072
2526,00;0,0072
2525,00;0,0071
2524,00;0,0070
2523,00;0,0070
2522,00;0,0070
2521,00;0,0071
2520,00;0,0070
2519,00;0,0070
2518,00;0,0069
2517,00;0,0068
2516,00;0,0068
2515,00;0,0067
2514,00;0,0067
2513,00;0,0067
2512,00;0,0067
2511,00;0,0067
2510,00;0,0067
2509,00;0,0067
2508,00;0,0067
2507,00;0,0067
2506,00;0,0066
2505,00;0,0066
2504,00;0,0066
2503,00;0,0065
2502,00;0,0065
2501,00;0,0064
2500,00;0,0063
2499,00;0,0063
2498,00;0,0063
2497,00;0,0062
2496,00;0,0062
2495,00;0,0062
2494,00;0,0062
2493,00;0,0062
2492,00;0,0061
2491,00;0,0061
2490,00;0,0060
2489,00;0,0060
2488,00;0,0060
2487,00;0,0059
2486,00;0,0059
2485,00;0,0058
2484,00;0,0059
2483,00;0,0059
2482,00;0,0059
2481,00;0,0059
2480,00;0,0059
2479,00;0,0059
2478,00;0,0059
2477,00;0,0059
2476,00;0,0059
2475,00;0,0058
2474,00;0,0058
2473,00;0,0057
2472,00;0,0056
2471,00;0,0055
2470,00;0,0055
2469,00;0,0054
2468,00;0,0054
2467,00;0,0054
2466,00;0,0055
2465,00;0,0056
2464,00;0,0056
2463,00;0,0057
2462,00;0,0057
2461,00;0,0056
2460,00;0,0056
2459,00;0,0055
2458,00;0,0055
2457,00;0,0055
2456,00;0,0054
2455,00;0,0054
2454,00;0,0053
2453,00;0,0052
2452,00;0,0052
2451,00;0,0051
2450,00;0,0051
2449,00;0,0051
2448,00;0,0051
2447,00;0,0050
2446,00;0,0050
2445,00;0,0049
2444,00;0,0049
2443,00;0,0049
2442,00;0,0049
2441,00;0,0049
2440,00;0,0049
2439,00;0,0050
2438,00;0,0050
2437,00;0,0050
2436,00;0,0050
2435,00;0,0049
2434,00;0,0048
2433,00;0,0048
2432,00;0,0049
2431,00;0,0049
2430,00;0,0050
2429,00;0,0050
2428,00;0,0050
2427,00;0,0049
2426,00;0,0049
2425,00;0,0048
2424,00;0,0048
2423,00;0,0048
2422,00;0,0048
2421,00;0,0048
2420,00;0,0048
2419,00;0,0048
2418,00;0,0048
2417,00;0,0049
2416,00;0,0049
2415,00;0,0049
2414,00;0,0049
2413,00;0,0049
2412,00;0,0049
2411,00;0,0048
2410,00;0,0047
2409,00;0,0047
2408,00;0,0047
2407,00;0,0047
2406,00;0,0047
2405,00;0,0047
2404,00;0,0047
2403,00;0,0047
2402,00;0,0047
2401,00;0,0047
2400,00;0,0046
2399,00;0,0046
2398,00;0,0046
2397,00;0,0046
2396,00;0,0047
2395,00;0,0046
2394,00;0,0046
2393,00;0,0046
2392,00;0,0046
2391,00;0,0047
2390,00;0,0047
2389,00;0,0047
2388,00;0,0046
2387,00;0,0046
2386,00;0,0046
2385,00;0,0046
2384,00;0,0046
2383,00;0,0046
2382,00;0,0046
2381,00;0,0045
2380,00;0,0045
2379,00;0,0045
2378,00;0,0045
2377,00;0,0045
2376,00;0,0046
2375,00;0,0046
2374,00;0,0046
2373,00;0,0046
2372,00;0,0045
2371,00;0,0044
2370,00;0,0044
2369,00;0,0044
2368,00;0,0043
2367,00;0,0043
2366,00;0,0043
2365,00;0,0043
2364,00;0,0044
2363,00;0,0044
2362,00;0,0044
2361,00;0,0044
2360,00;0,0044
2359,00;0,0043
2358,00;0,0043
2357,00;0,0043
2356,00;0,0044
2355,00;0,0044
2354,00;0,0043
2353,00;0,0043
2352,00;0,0042
2351,00;0,0042
2350,00;0,0042
2349,00;0,0043
2348,00;0,0043
2347,00;0,0043
2346,00;0,0042
2345,00;0,0042
2344,00;0,0042
2343,00;0,0043
2342,00;0,0042
2341,00;0,0042
2340,00;0,0041
2339,00;0,0041
2338,00;0,0041
2337,00;0,0041
2336,00;0,0041
2335,00;0,0042
2334,00;0,0042
2333,00;0,0042
2332,00;0,0043
2331,00;0,0043
2330,00;0,0043
2329,00;0,0042
2328,00;0,0042
2327,00;0,0042
2326,00;0,0041
2325,00;0,0041
2324,00;0,0040
2323,00;0,0039
2322,00;0,0039
2321,00;0,0039
2320,00;0,0039
2319,00;0,0039
2318,00;0,0039
2317,00;0,0039
2316,00;0,0039
2315,00;0,0039
2314,00;0,0039
2313,00;0,0039
2312,00;0,0038
2311,00;0,0038
2310,00;0,0037
2309,00;0,0037
2308,00;0,0037
2307,00;0,0037
2306,00;0,0037
2305,00;0,0037
2304,00;0,0037
2303,00;0,0036
2302,00;0,0036
2301,00;0,0036
2300,00;0,0036
2299,00;0,0037
2298,00;0,0037
2297,00;0,0037
2296,00;0,0037
2295,00;0,0037
2294,00;0,0036
2293,00;0,0036
2292,00;0,0036
2291,00;0,0035
2290,00;0,0034
2289,00;0,0034
2288,00;0,0033
2287,00;0,0033
2286,00;0,0033
2285,00;0,0033
2284,00;0,0033
2283,00;0,0033
2282,00;0,0033
2281,00;0,0032
2280,00;0,0032
2279,00;0,0032
2278,00;0,0031
2277,00;0,0030
2276,00;0,0030
2275,00;0,0030
2274,00;0,0030
2273,00;0,0031
2272,00;0,0031
2271,00;0,0032
2270,00;0,0032
2269,00;0,0031
2268,00;0,0031
2267,00;0,0030
2266,00;0,0030
2265,00;0,0030
2264,00;0,0030
2263,00;0,0030
2262,00;0,0030
2261,00;0,0031
2260,00;0,0032
2259,00;0,0032
2258,00;0,0032
2257,00;0,0030
2256,00;0,0029
2255,00;0,0028
2254,00;0,0027
2253,00;0,0027
2252,00;0,0027
2251,00;0,0027
2250,00;0,0028
2249,00;0,0028
2248,00;0,0029
2247,00;0,0029
2246,00;0,0029
2245,00;0,0029
2244,00;0,0028
2243,00;0,0027
2242,00;0,0027
2241,00;0,0028
2240,00;0,0029
2239,00;0,0030
2238,00;0,0031
2237,00;0,0031
2236,00;0,0031
2235,00;0,0030
2234,00;0,0030
2233,00;0,0030
2232,00;0,0029
2231,00;0,0028
2230,00;0,0028
2229,00;0,0027
2228,00;0,0027
2227,00;0,0027
2226,00;0,0027
2225,00;0,0028
2224,00;0,0029
2223,00;0,0029
2222,00;0,0029
2221,00;0,0028
2220,00;0,0027
2219,00;0,0026
2218,00;0,0024
2217,00;0,0024
2216,00;0,0025
2215,00;0,0026
2214,00;0,0026
2213,00;0,0026
2212,00;0,0024
2211,00;0,0023
2210,00;0,0023
2209,00;0,0024
2208,00;0,0025
2207,00;0,0024
2206,00;0,0023
2205,00;0,0022
2204,00;0,0022
2203,00;0,0023
2202,00;0,0025
2201,00;0,0028
2200,00;0,0030
2199,00;0,0031
2198,00;0,0031
2197,00;0,0030
2196,00;0,0028
2195,00;0,0025
2194,00;0,0023
2193,00;0,0022
2192,00;0,0023
2191,00;0,0024
2190,00;0,0025
2189,00;0,0026
2188,00;0,0027
2187,00;0,0028
2186,00;0,0028
2185,00;0,0029
2184,00;0,0030
2183,00;0,0030
2182,00;0,0030
2181,00;0,0029
2180,00;0,0028
2179,00;0,0027
2178,00;0,0027
2177,00;0,0028
2176,00;0,0029
2175,00;0,0029
2174,00;0,0029
2173,00;0,0027
2172,00;0,0025
2171,00;0,0022
2170,00;0,0019
2169,00;0,0018
2168,00;0,0019
2167,00;0,0022
2166,00;0,0024
2165,00;0,0025
2164,00;0,0025
2163,00;0,0024
2162,00;0,0023
2161,00;0,0022
2160,00;0,0021
2159,00;0,0022
2158,00;0,0023
2157,00;0,0023
2156,00;0,0022
2155,00;0,0021
2154,00;0,0021
2153,00;0,0022
2152,00;0,0024
2151,00;0,0024
2150,00;0,0023
2149,00;0,0023
2148,00;0,0023
2147,00;0,0023
2146,00;0,0023
2145,00;0,0023
2144,00;0,0024
2143,00;0,0026
2142,00;0,0027
2141,00;0,0026
2140,00;0,0025
2139,00;0,0024
2138,00;0,0023
2137,00;0,0024
2136,00;0,0025
2135,00;0,0026
2134,00;0,0026
2133,00;0,0027
2132,00;0,0028
2131,00;0,0028
2130,00;0,0028
2129,00;0,0028
2128,00;0,0028
2127,00;0,0027
2126,00;0,0027
2125,00;0,0028
2124,00;0,0030
2123,00;0,0031
2122,00;0,0031
2121,00;0,0031
2120,00;0,0030
2119,00;0,0030
2118,00;0,0029
2117,00;0,0028
2116,00;0,0026
2115,00;0,0024
2114,00;0,0023
2113,00;0,0023
2112,00;0,0024
2111,00;0,0025
2110,00;0,0026
2109,00;0,0027
2108,00;0,0027
2107,00;0,0026
2106,00;0,0025
2105,00;0,0025
2104,00;0,0026
2103,00;0,0026
2102,00;0,0026
2101,00;0,0027
2100,00;0,0028
2099,00;0,0029
2098,00;0,0029
2097,00;0,0028
2096,00;0,0027
2095,00;0,0026
2094,00;0,0025
2093,00;0,0025
2092,00;0,0026
2091,00;0,0027
2090,00;0,0027
2089,00;0,0027
2088,00;0,0027
2087,00;0,0026
2086,00;0,0026
2085,00;0,0026
2084,00;0,0027
2083,00;0,0027
2082,00;0,0026
2081,00;0,0025
2080,00;0,0025
2079,00;0,0024
2078,00;0,0023
2077,00;0,0023
2076,00;0,0022
2075,00;0,0021
2074,00;0,0021
2073,00;0,0022
2072,00;0,0024
2071,00;0,0026
2070,00;0,0027
2069,00;0,0027
2068,00;0,0028
2067,00;0,0028
2066,00;0,0027
2065,00;0,0025
2064,00;0,0025
2063,00;0,0025
2062,00;0,0026
2061,00;0,0027
2060,00;0,0027
2059,00;0,0027
2058,00;0,0027
2057,00;0,0028
2056,00;0,0029
2055,00;0,0030
2054,00;0,0031
2053,00;0,0031
2052,00;0,0030
2051,00;0,0026
2050,00;0,0022
2049,00;0,0019
2048,00;0,0018
2047,00;0,0018
2046,00;0,0018
2045,00;0,0019
2044,00;0,0019
2043,00;0,0020
2042,00;0,0022
2041,00;0,0024
2040,00;0,0027
2039,00;0,0027
2038,00;0,0026
2037,00;0,0025
2036,00;0,0024
2035,00;0,0023
2034,00;0,0022
2033,00;0,0021
2032,00;0,0021
2031,00;0,0021
2030,00;0,0020
2029,00;0,0021
2028,00;0,0022
2027,00;0,0025
2026,00;0,0027
2025,00;0,0030
2024,00;0,0030
2023,00;0,0030
2022,00;0,0029
2021,00;0,0028
2020,00;0,0026
2019,00;0,0023
2018,00;0,0022
2017,00;0,0021
2016,00;0,0021
2015,00;0,0022
2014,00;0,0023
2013,00;0,0024
2012,00;0,0025
2011,00;0,0024
2010,00;0,0022
2009,00;0,0023
2008,00;0,0025
2007,00;0,0027
2006,00;0,0028
2005,00;0,0027
2004,00;0,0025
2003,00;0,0024
2002,00;0,0023
2001,00;0,0023
2000,00;0,0024
1999,00;0,0023
1998,00;0,0022
1997,00;0,0022
1996,00;0,0022
1995,00;0,0023
1994,00;0,0023
1993,00;0,0024
1992,00;0,0023
1991,00;0,0022
1990,00;0,0021
1989,00;0,0020
1988,00;0,0020
1987,00;0,0020
1986,00;0,0020
1985,00;0,0021
1984,00;0,0022
1983,00;0,0024
1982,00;0,0026
1981,00;0,0029
1980,00;0,0030
1979,00;0,0030
1978,00;0,0029
1977,00;0,0030
1976,00;0,0031
1975,00;0,0030
1974,00;0,0028
1973,00;0,0025
1972,00;0,0021
1971,00;0,0019
1970,00;0,0019
1969,00;0,0021
1968,00;0,0024
1967,00;0,0026
1966,00;0,0026
1965,00;0,0026
1964,00;0,0025
1963,00;0,0025
1962,00;0,0025
1961,00;0,0026
1960,00;0,0028
1959,00;0,0029
1958,00;0,0030
1957,00;0,0031
1956,00;0,0031
1955,00;0,0030
1954,00;0,0029
1953,00;0,0028
1952,00;0,0028
1951,00;0,0027
1950,00;0,0028
1949,00;0,0029
1948,00;0,0029
1947,00;0,0028
1946,00;0,0028
1945,00;0,0028
1944,00;0,0029
1943,00;0,0030
1942,00;0,0031
1941,00;0,0032
1940,00;0,0033
1939,00;0,0033
1938,00;0,0033
1937,00;0,0032
1936,00;0,0031
1935,00;0,0030
1934,00;0,0029
1933,00;0,0028
1932,00;0,0028
1931,00;0,0030
1930,00;0,0032
1929,00;0,0033
1928,00;0,0034
1927,00;0,0033
1926,00;0,0032
1925,00;0,0031
1924,00;0,0031
1923,00;0,0030
1922,00;0,0030
1921,00;0,0030
1920,00;0,0031
1919,00;0,0031
1918,00;0,0032
1917,00;0,0033
1916,00;0,0034
1915,00;0,0033
1914,00;0,0033
1913,00;0,0032
1912,00;0,0032
1911,00;0,0031
1910,00;0,0031
1909,00;0,0031
1908,00;0,0031
1907,00;0,0032
1906,00;0,0032
1905,00;0,0032
1904,00;0,0033
1903,00;0,0033
1902,00;0,0033
1901,00;0,0034
1900,00;0,0034
1899,00;0,0034
1898,00;0,0034
1897,00;0,0035
1896,00;0,0035
1895,00;0,0036
1894,00;0,0035
1893,00;0,0035
1892,00;0,0035
1891,00;0,0035
1890,00;0,0035
1889,00;0,0035
1888,00;0,0035
1887,00;0,0035
1886,00;0,0035
1885,00;0,0034
1884,00;0,0034
1883,00;0,0034
1882,00;0,0034
1881,00;0,0035
1880,00;0,0036
1879,00;0,0037
1878,00;0,0036
1877,00;0,0035
1876,00;0,0035
1875,00;0,0035
1874,00;0,0036
1873,00;0,0036
1872,00;0,0037
1871,00;0,0037
1870,00;0,0037
1869,00;0,0036
1868,00;0,0036
1867,00;0,0036
1866,00;0,0036
1865,00;0,0036
1864,00;0,0037
1863,00;0,0037
1862,00;0,0037
1861,00;0,0037
1860,00;0,0038
1859,00;0,0038
1858,00;0,0039
1857,00;0,0039
1856,00;0,0039
1855,00;0,0039
1854,00;0,0039
1853,00;0,0040
1852,00;0,0040
1851,00;0,0040
1850,00;0,0040
1849,00;0,0040
1848,00;0,0039
1847,00;0,0039
1846,00;0,0039
1845,00;0,0041
1844,00;0,0043
1843,00;0,0043
1842,00;0,0043
1841,00;0,0042
1840,00;0,0042
1839,00;0,0041
1838,00;0,0041
1837,00;0,0041
1836,00;0,0042
1835,00;0,0042
1834,00;0,0042
1833,00;0,0043
1832,00;0,0045
1831,00;0,0046
1830,00;0,0047
1829,00;0,0047
1828,00;0,0048
1827,00;0,0048
1826,00;0,0048
1825,00;0,0048
1824,00;0,0047
1823,00;0,0047
1822,00;0,0047
1821,00;0,0048
1820,00;0,0048
1819,00;0,0048
1818,00;0,0048
1817,00;0,0049
1816,00;0,0050
1815,00;0,0050
1814,00;0,0050
1813,00;0,0050
1812,00;0,0051
1811,00;0,0051
1810,00;0,0052
1809,00;0,0053
1808,00;0,0054
1807,00;0,0055
1806,00;0,0055
1805,00;0,0055
1804,00;0,0056
1803,00;0,0057
1802,00;0,0058
1801,00;0,0060
1800,00;0,0062
1799,00;0,0062
1798,00;0,0062
1797,00;0,0062
1796,00;0,0062
1795,00;0,0063
1794,00;0,0065
1793,00;0,0068
1792,00;0,0071
1791,00;0,0073
1790,00;0,0074
1789,00;0,0075
1788,00;0,0077
1787,00;0,0078
1786,00;0,0080
1785,00;0,0081
1784,00;0,0082
1783,00;0,0082
1782,00;0,0083
1781,00;0,0085
1780,00;0,0086
1779,00;0,0088
1778,00;0,0089
1777,00;0,0091
1776,00;0,0091
1775,00;0,0092
1774,00;0,0095
1773,00;0,0099
1772,00;0,0104
1771,00;0,0108
1770,00;0,0112
1769,00;0,0115
1768,00;0,0119
1767,00;0,0122
1766,00;0,0125
1765,00;0,0129
1764,00;0,0134
1763,00;0,0139
1762,00;0,0145
1761,00;0,0151
1760,00;0,0157
1759,00;0,0164
1758,00;0,0173
1757,00;0,0183
1756,00;0,0194
1755,00;0,0204
1754,00;0,0215
1753,00;0,0230
1752,00;0,0248
1751,00;0,0270
1750,00;0,0293
1749,00;0,0317
1748,00;0,0341
1747,00;0,0364
1746,00;0,0385
1745,00;0,0405
1744,00;0,0422
1743,00;0,0437
1742,00;0,0449
1741,00;0,0459
1740,00;0,0466
1739,00;0,0468
1738,00;0,0467
1737,00;0,0463
1736,00;0,0459
1735,00;0,0454
1734,00;0,0448
1733,00;0,0443
1732,00;0,0439
1731,00;0,0437
1730,00;0,0436
1729,00;0,0436
1728,00;0,0437
1727,00;0,0441
1726,00;0,0446
1725,00;0,0455
1724,00;0,0467
1723,00;0,0482
1722,00;0,0499
1721,00;0,0518
1720,00;0,0541
1719,00;0,0571
1718,00;0,0611
1717,00;0,0658
1716,00;0,0705
1715,00;0,0748
1714,00;0,0786
1713,00;0,0813
1712,00;0,0830
1711,00;0,0837
1710,00;0,0834
1709,00;0,0820
1708,00;0,0797
1707,00;0,0766
1706,00;0,0731
1705,00;0,0695
1704,00;0,0662
1703,00;0,0635
1702,00;0,0612
1701,00;0,0588
1700,00;0,0560
1699,00;0,0534
1698,00;0,0513
1697,00;0,0499
1696,00;0,0488
1695,00;0,0478
1694,00;0,0469
1693,00;0,0460
1692,00;0,0449
1691,00;0,0437
1690,00;0,0425
1689,00;0,0412
1688,00;0,0397
1687,00;0,0382
1686,00;0,0370
1685,00;0,0360
1684,00;0,0351
1683,00;0,0341
1682,00;0,0331
1681,00;0,0319
1680,00;0,0307
1679,00;0,0297
1678,00;0,0289
1677,00;0,0283
1676,00;0,0276
1675,00;0,0267
1674,00;0,0257
1673,00;0,0249
1672,00;0,0242
1671,00;0,0237
1670,00;0,0233
1669,00;0,0228
1668,00;0,0222
1667,00;0,0217
1666,00;0,0213
1665,00;0,0211
1664,00;0,0211
1663,00;0,0210
1662,00;0,0210
1661,00;0,0209
1660,00;0,0208
1659,00;0,0208
1658,00;0,0208
1657,00;0,0208
1656,00;0,0207
1655,00;0,0206
1654,00;0,0207
1653,00;0,0209
1652,00;0,0208
1651,00;0,0208
1650,00;0,0210
1649,00;0,0210
1648,00;0,0210
1647,00;0,0212
1646,00;0,0214
1645,00;0,0217
1644,00;0,0219
1643,00;0,0222
1642,00;0,0226
1641,00;0,0230
1640,00;0,0235
1639,00;0,0240
1638,00;0,0246
1637,00;0,0255
1636,00;0,0269
1635,00;0,0283
1634,00;0,0293
1633,00;0,0302
1632,00;0,0312
1631,00;0,0323
1630,00;0,0337
1629,00;0,0354
1628,00;0,0372
1627,00;0,0390
1626,00;0,0408
1625,00;0,0428
1624,00;0,0451
1623,00;0,0476
1622,00;0,0499
1621,00;0,0520
1620,00;0,0539
1619,00;0,0558
1618,00;0,0583
1617,00;0,0613
1616,00;0,0647
1615,00;0,0677
1614,00;0,0703
1613,00;0,0727
1612,00;0,0753
1611,00;0,0780
1610,00;0,0807
1609,00;0,0835
1608,00;0,0863
1607,00;0,0891
1606,00;0,0917
1605,00;0,0942
1604,00;0,0966
1603,00;0,0989
1602,00;0,1009
1601,00;0,1027
1600,00;0,1044
1599,00;0,1057
1598,00;0,1067
1597,00;0,1074
1596,00;0,1078
1595,00;0,1078
1594,00;0,1074
1593,00;0,1066
1592,00;0,1055
1591,00;0,1041
1590,00;0,1023
1589,00;0,1003
1588,00;0,0981
1587,00;0,0958
1586,00;0,0934
1585,00;0,0910
1584,00;0,0887
1583,00;0,0864
1582,00;0,0842
1581,00;0,0822
1580,00;0,0802
1579,00;0,0782
1578,00;0,0762
1577,00;0,0746
1576,00;0,0734
1575,00;0,0726
1574,00;0,0719
1573,00;0,0713
1572,00;0,0707
1571,00;0,0703
1570,00;0,0700
1569,00;0,0699
1568,00;0,0697
1567,00;0,0697
1566,00;0,0699
1565,00;0,0704
1564,00;0,0707
1563,00;0,0709
1562,00;0,0710
1561,00;0,0717
1560,00;0,0728
1559,00;0,0742
1558,00;0,0754
1557,00;0,0759
1556,00;0,0761
1555,00;0,0764
1554,00;0,0769
1553,00;0,0775
1552,00;0,0781
1551,00;0,0787
1550,00;0,0796
1549,00;0,0805
1548,00;0,0814
1547,00;0,0823
1546,00;0,0832
1545,00;0,0843
1544,00;0,0853
1543,00;0,0863
1542,00;0,0874
1541,00;0,0888
1540,00;0,0909
1539,00;0,0930
1538,00;0,0946
1537,00;0,0958
1536,00;0,0970
1535,00;0,0983
1534,00;0,1000
1533,00;0,1016
1532,00;0,1029
1531,00;0,1039
1530,00;0,1048
1529,00;0,1057
1528,00;0,1067
1527,00;0,1077
1526,00;0,1086
1525,00;0,1092
1524,00;0,1095
1523,00;0,1096
1522,00;0,1097
1521,00;0,1098
1520,00;0,1096
1519,00;0,1088
1518,00;0,1074
1517,00;0,1055
1516,00;0,1033
1515,00;0,1007
1514,00;0,0978
1513,00;0,0946
1512,00;0,0910
1511,00;0,0873
1510,00;0,0836
1509,00;0,0797
1508,00;0,0756
1507,00;0,0714
1506,00;0,0674
1505,00;0,0640
1504,00;0,0611
1503,00;0,0586
1502,00;0,0562
1501,00;0,0538
1500,00;0,0516
1499,00;0,0495
1498,00;0,0473
1497,00;0,0453
1496,00;0,0437
1495,00;0,0423
1494,00;0,0412
1493,00;0,0403
1492,00;0,0395
1491,00;0,0387
1490,00;0,0379
1489,00;0,0373
1488,00;0,0369
1487,00;0,0366
1486,00;0,0363
1485,00;0,0362
1484,00;0,0363
1483,00;0,0364
1482,00;0,0367
1481,00;0,0371
1480,00;0,0379
1479,00;0,0388
1478,00;0,0401
1477,00;0,0417
1476,00;0,0438
1475,00;0,0465
1474,00;0,0506
1473,00;0,0573
1472,00;0,0663
1471,00;0,0762
1470,00;0,0861
1469,00;0,0956
1468,00;0,1044
1467,00;0,1117
1466,00;0,1175
1465,00;0,1219
1464,00;0,1253
1463,00;0,1277
1462,00;0,1297
1461,00;0,1316
1460,00;0,1336
1459,00;0,1358
1458,00;0,1386
1457,00;0,1419
1456,00;0,1443
1455,00;0,1453
1454,00;0,1456
1453,00;0,1459
1452,00;0,1464
1451,00;0,1473
1450,00;0,1487
1449,00;0,1506
1448,00;0,1529
1447,00;0,1551
1446,00;0,1570
1445,00;0,1587
1444,00;0,1602
1443,00;0,1612
1442,00;0,1619
1441,00;0,1624
1440,00;0,1627
1439,00;0,1628
1438,00;0,1631
1437,00;0,1636
1436,00;0,1640
1435,00;0,1638
1434,00;0,1633
1433,00;0,1626
1432,00;0,1615
1431,00;0,1599
1430,00;0,1578
1429,00;0,1555
1428,00;0,1531
1427,00;0,1507
1426,00;0,1488
1425,00;0,1474
1424,00;0,1466
1423,00;0,1462
1422,00;0,1460
1421,00;0,1460
1420,00;0,1458
1419,00;0,1454
1418,00;0,1445
1417,00;0,1433
1416,00;0,1417
1415,00;0,1400
1414,00;0,1382
1413,00;0,1365
1412,00;0,1347
1411,00;0,1328
1410,00;0,1310
1409,00;0,1291
1408,00;0,1273
1407,00;0,1253
1406,00;0,1231
1405,00;0,1207
1404,00;0,1178
1403,00;0,1145
1402,00;0,1109
1401,00;0,1070
1400,00;0,1029
1399,00;0,0987
1398,00;0,0947
1397,00;0,0911
1396,00;0,0877
1395,00;0,0844
1394,00;0,0813
1393,00;0,0784
1392,00;0,0758
1391,00;0,0733
1390,00;0,0710
1389,00;0,0689
1388,00;0,0669
1387,00;0,0653
1386,00;0,0640
1385,00;0,0632
1384,00;0,0627
1383,00;0,0628
1382,00;0,0634
1381,00;0,0644
1380,00;0,0656
1379,00;0,0664
1378,00;0,0665
1377,00;0,0657
1376,00;0,0643
1375,00;0,0628
1374,00;0,0615
1373,00;0,0608
1372,00;0,0604
1371,00;0,0603
1370,00;0,0604
1369,00;0,0604
1368,00;0,0603
1367,00;0,0601
1366,00;0,0597
1365,00;0,0592
1364,00;0,0585
1363,00;0,0578
1362,00;0,0571
1361,00;0,0566
1360,00;0,0560
1359,00;0,0556
1358,00;0,0553
1357,00;0,0551
1356,00;0,0549
1355,00;0,0547
1354,00;0,0546
1353,00;0,0544
1352,00;0,0541
1351,00;0,0538
1350,00;0,0534
1349,00;0,0530
1348,00;0,0525
1347,00;0,0520
1346,00;0,0516
1345,00;0,0511
1344,00;0,0506
1343,00;0,0501
1342,00;0,0496
1341,00;0,0490
1340,00;0,0484
1339,00;0,0478
1338,00;0,0473
1337,00;0,0470
1336,00;0,0469
1335,00;0,0469
1334,00;0,0472
1333,00;0,0477
1332,00;0,0483
1331,00;0,0492
1330,00;0,0503
1329,00;0,0514
1328,00;0,0526
1327,00;0,0538
1326,00;0,0551
1325,00;0,0563
1324,00;0,0574
1323,00;0,0584
1322,00;0,0594
1321,00;0,0602
1320,00;0,0609
1319,00;0,0614
1318,00;0,0617
1317,00;0,0619
1316,00;0,0619
1315,00;0,0618
1314,00;0,0617
1313,00;0,0615
1312,00;0,0614
1311,00;0,0613
1310,00;0,0611
1309,00;0,0610
1308,00;0,0608
1307,00;0,0606
1306,00;0,0603
1305,00;0,0601
1304,00;0,0598
1303,00;0,0596
1302,00;0,0592
1301,00;0,0588
1300,00;0,0583
1299,00;0,0578
1298,00;0,0572
1297,00;0,0567
1296,00;0,0561
1295,00;0,0556
1294,00;0,0551
1293,00;0,0546
1292,00;0,0541
1291,00;0,0538
1290,00;0,0535
1289,00;0,0533
1288,00;0,0532
1287,00;0,0532
1286,00;0,0532
1285,00;0,0531
1284,00;0,0529
1283,00;0,0527
1282,00;0,0525
1281,00;0,0523
1280,00;0,0520
1279,00;0,0518
1278,00;0,0515
1277,00;0,0512
1276,00;0,0510
1275,00;0,0508
1274,00;0,0507
1273,00;0,0506
1272,00;0,0506
1271,00;0,0505
1270,00;0,0504
1269,00;0,0504
1268,00;0,0503
1267,00;0,0503
1266,00;0,0503
1265,00;0,0503
1264,00;0,0503
1263,00;0,0503
1262,00;0,0503
1261,00;0,0503
1260,00;0,0503
1259,00;0,0503
1258,00;0,0503
1257,00;0,0504
1256,00;0,0503
1255,00;0,0503
1254,00;0,0504
1253,00;0,0504
1252,00;0,0505
1251,00;0,0506
1250,00;0,0507
1249,00;0,0509
1248,00;0,0510
1247,00;0,0511
1246,00;0,0511
1245,00;0,0511
1244,00;0,0511
1243,00;0,0510
1242,00;0,0509
1241,00;0,0508
1240,00;0,0506
1239,00;0,0505
1238,00;0,0503
1237,00;0,0502
1236,00;0,0501
1235,00;0,0501
1234,00;0,0501
1233,00;0,0500
1232,00;0,0500
1231,00;0,0499
1230,00;0,0498
1229,00;0,0497
1228,00;0,0496
1227,00;0,0495
1226,00;0,0494
1225,00;0,0492
1224,00;0,0490
1223,00;0,0488
1222,00;0,0487
1221,00;0,0487
1220,00;0,0488
1219,00;0,0489
1218,00;0,0490
1217,00;0,0490
1216,00;0,0490
1215,00;0,0490
1214,00;0,0489
1213,00;0,0489
1212,00;0,0490
1211,00;0,0490
1210,00;0,0491
1209,00;0,0492
1208,00;0,0492
1207,00;0,0493
1206,00;0,0494
1205,00;0,0495
1204,00;0,0495
1203,00;0,0496
1202,00;0,0497
1201,00;0,0498
1200,00;0,0498
1199,00;0,0498
1198,00;0,0498
1197,00;0,0498
1196,00;0,0497
1195,00;0,0496
1194,00;0,0494
1193,00;0,0493
1192,00;0,0491
1191,00;0,0489
1190,00;0,0487
1189,00;0,0486
1188,00;0,0485
1187,00;0,0485
1186,00;0,0484
1185,00;0,0483
1184,00;0,0483
1183,00;0,0483
1182,00;0,0483
1181,00;0,0484
1180,00;0,0485
1179,00;0,0487
1178,00;0,0487
1177,00;0,0488
1176,00;0,0488
1175,00;0,0488
1174,00;0,0488
1173,00;0,0487
1172,00;0,0486
1171,00;0,0484
1170,00;0,0481
1169,00;0,0477
1168,00;0,0472
1167,00;0,0468
1166,00;0,0462
1165,00;0,0456
1164,00;0,0450
1163,00;0,0443
1162,00;0,0435
1161,00;0,0427
1160,00;0,0419
1159,00;0,0412
1158,00;0,0405
1157,00;0,0399
1156,00;0,0393
1155,00;0,0387
1154,00;0,0381
1153,00;0,0375
1152,00;0,0371
1151,00;0,0366
1150,00;0,0363
1149,00;0,0359
1148,00;0,0356
1147,00;0,0354
1146,00;0,0351
1145,00;0,0349
1144,00;0,0346
1143,00;0,0343
1142,00;0,0339
1141,00;0,0335
1140,00;0,0330
1139,00;0,0326
1138,00;0,0323
1137,00;0,0319
1136,00;0,0316
1135,00;0,0314
1134,00;0,0312
1133,00;0,0311
1132,00;0,0311
1131,00;0,0312
1130,00;0,0315
1129,00;0,0320
1128,00;0,0326
1127,00;0,0335
1126,00;0,0344
1125,00;0,0354
1124,00;0,0365
1123,00;0,0375
1122,00;0,0385
1121,00;0,0393
1120,00;0,0398
1119,00;0,0402
1118,00;0,0403
1117,00;0,0402
1116,00;0,0398
1115,00;0,0393
1114,00;0,0387
1113,00;0,0379
1112,00;0,0372
1111,00;0,0364
1110,00;0,0357
1109,00;0,0349
1108,00;0,0343
1107,00;0,0338
1106,00;0,0334
1105,00;0,0332
1104,00;0,0331
1103,00;0,0333
1102,00;0,0336
1101,00;0,0340
1100,00;0,0345
1099,00;0,0351
1098,00;0,0357
1097,00;0,0362
1096,00;0,0365
1095,00;0,0368
1094,00;0,0369
1093,00;0,0368
1092,00;0,0368
1091,00;0,0366
1090,00;0,0365
1089,00;0,0363
1088,00;0,0362
1087,00;0,0360
1086,00;0,0358
1085,00;0,0356
1084,00;0,0353
1083,00;0,0349
1082,00;0,0345
1081,00;0,0341
1080,00;0,0336
1079,00;0,0332
1078,00;0,0327
1077,00;0,0322
1076,00;0,0316
1075,00;0,0312
1074,00;0,0308
1073,00;0,0304
1072,00;0,0302
1071,00;0,0299
1070,00;0,0297
1069,00;0,0294
1068,00;0,0293
1067,00;0,0292
1066,00;0,0291
1065,00;0,0291
1064,00;0,0291
1063,00;0,0290
1062,00;0,0289
1061,00;0,0288
1060,00;0,0287
1059,00;0,0287
1058,00;0,0286
1057,00;0,0285
1056,00;0,0284
1055,00;0,0283
1054,00;0,0282
1053,00;0,0281
1052,00;0,0280
1051,00;0,0278
1050,00;0,0277
1049,00;0,0276
1048,00;0,0275
1047,00;0,0274
1046,00;0,0273
1045,00;0,0272
1044,00;0,0272
1043,00;0,0272
1042,00;0,0273
1041,00;0,0274
1040,00;0,0274
1039,00;0,0274
1038,00;0,0275
1037,00;0,0276
1036,00;0,0277
1035,00;0,0277
1034,00;0,0278
1033,00;0,0278
1032,00;0,0277
1031,00;0,0278
1030,00;0,0278
1029,00;0,0279
1028,00;0,0280
1027,00;0,0280
1026,00;0,0281
1025,00;0,0282
1024,00;0,0284
1023,00;0,0285
1022,00;0,0286
1021,00;0,0287
1020,00;0,0289
1019,00;0,0290
1018,00;0,0292
1017,00;0,0292
1016,00;0,0293
1015,00;0,0294
1014,00;0,0294
1013,00;0,0295
1012,00;0,0295
1011,00;0,0295
1010,00;0,0295
1009,00;0,0294
1008,00;0,0293
1007,00;0,0292
1006,00;0,0292
1005,00;0,0291
1004,00;0,0291
1003,00;0,0291
1002,00;0,0290
1001,00;0,0290
1000,00;0,0290
999,00;0,0291
998,00;0,0291
997,00;0,0292
996,00;0,0293
995,00;0,0293
994,00;0,0294
993,00;0,0295
992,00;0,0296
991,00;0,0297
990,00;0,0299
989,00;0,0302
988,00;0,0304
987,00;0,0306
986,00;0,0309
985,00;0,0310
984,00;0,0312
983,00;0,0315
982,00;0,0318
981,00;0,0321
980,00;0,0325
979,00;0,0329
978,00;0,0333
977,00;0,0338
976,00;0,0344
975,00;0,0351
974,00;0,0358
973,00;0,0366
972,00;0,0374
971,00;0,0382
970,00;0,0390
969,00;0,0397
968,00;0,0403
967,00;0,0405
966,00;0,0404
965,00;0,0400
964,00;0,0392
963,00;0,0382
962,00;0,0371
961,00;0,0361
960,00;0,0351
959,00;0,0344
958,00;0,0338
957,00;0,0334
956,00;0,0331
955,00;0,0328
954,00;0,0327
953,00;0,0326
952,00;0,0326
951,00;0,0327
950,00;0,0328
949,00;0,0329
948,00;0,0329
947,00;0,0330
946,00;0,0331
945,00;0,0332
944,00;0,0333
943,00;0,0334
942,00;0,0334
941,00;0,0334
940,00;0,0334
939,00;0,0334
938,00;0,0334
937,00;0,0334
936,00;0,0333
935,00;0,0332
934,00;0,0331
933,00;0,0329
932,00;0,0328
931,00;0,0327
930,00;0,0326
929,00;0,0325
928,00;0,0323
927,00;0,0322
926,00;0,0322
925,00;0,0321
924,00;0,0320
923,00;0,0319
922,00;0,0319
921,00;0,0318
920,00;0,0317
919,00;0,0317
918,00;0,0316
917,00;0,0316
916,00;0,0315
915,00;0,0315
914,00;0,0314
913,00;0,0313
912,00;0,0312
911,00;0,0312
910,00;0,0311
909,00;0,0311
908,00;0,0311
907,00;0,0311
906,00;0,0310
905,00;0,0309
904,00;0,0307
903,00;0,0306
902,00;0,0304
901,00;0,0302
900,00;0,0301
899,00;0,0300
898,00;0,0300
897,00;0,0300
896,00;0,0299
895,00;0,0300
894,00;0,0301
893,00;0,0302
892,00;0,0303
891,00;0,0304
890,00;0,0304
889,00;0,0303
888,00;0,0303
887,00;0,0302
886,00;0,0301
885,00;0,0301
884,00;0,0301
883,00;0,0301
882,00;0,0301
881,00;0,0300
880,00;0,0300
879,00;0,0299
878,00;0,0299
877,00;0,0299
876,00;0,0298
875,00;0,0297
874,00;0,0297
873,00;0,0296
872,00;0,0295
871,00;0,0294
870,00;0,0293
869,00;0,0292
868,00;0,0290
867,00;0,0288
866,00;0,0287
865,00;0,0285
864,00;0,0285
863,00;0,0285
862,00;0,0286
861,00;0,0287
860,00;0,0287
859,00;0,0287
858,00;0,0287
857,00;0,0287
856,00;0,0287
855,00;0,0287
854,00;0,0286
853,00;0,0285
852,00;0,0284
851,00;0,0284
850,00;0,0283
849,00;0,0282
848,00;0,0281
847,00;0,0280
846,00;0,0279
845,00;0,0278
844,00;0,0277
843,00;0,0276
842,00;0,0276
841,00;0,0277
840,00;0,0277
839,00;0,0276
838,00;0,0275
837,00;0,0273
836,00;0,0273
835,00;0,0273
834,00;0,0273
833,00;0,0273
832,00;0,0272
831,00;0,0271
830,00;0,0270
829,00;0,0270
828,00;0,0271
827,00;0,0271
826,00;0,0271
825,00;0,0271
824,00;0,0271
823,00;0,0271
822,00;0,0271
821,00;0,0270
820,00;0,0269
819,00;0,0269
818,00;0,0269
817,00;0,0269
816,00;0,0270
815,00;0,0271
814,00;0,0271
813,00;0,0270
812,00;0,0270
811,00;0,0271
810,00;0,0272
809,00;0,0272
808,00;0,0271
807,00;0,0269
806,00;0,0268
805,00;0,0267
804,00;0,0267
803,00;0,0268
802,00;0,0270
801,00;0,0271
800,00;0,0272
799,00;0,0273
798,00;0,0275
797,00;0,0277
796,00;0,0278
795,00;0,0280
794,00;0,0281
793,00;0,0283
792,00;0,0285
791,00;0,0288
790,00;0,0291
789,00;0,0294
788,00;0,0296
787,00;0,0296
786,00;0,0297
785,00;0,0298
784,00;0,0299
783,00;0,0300
782,00;0,0302
781,00;0,0305
780,00;0,0308
779,00;0,0311
778,00;0,0314
777,00;0,0317
776,00;0,0319
775,00;0,0322
774,00;0,0326
773,00;0,0331
772,00;0,0335
771,00;0,0340
770,00;0,0344
769,00;0,0347
768,00;0,0351
767,00;0,0356
766,00;0,0360
765,00;0,0364
764,00;0,0367
763,00;0,0370
762,00;0,0372
761,00;0,0373
760,00;0,0376
759,00;0,0379
758,00;0,0381
757,00;0,0383
756,00;0,0385
755,00;0,0388
754,00;0,0391
753,00;0,0396
752,00;0,0401
751,00;0,0407
750,00;0,0412
749,00;0,0418
748,00;0,0426
747,00;0,0434
746,00;0,0443
745,00;0,0452
744,00;0,0462
743,00;0,0471
742,00;0,0482
741,00;0,0493
740,00;0,0506
739,00;0,0521
738,00;0,0536
737,00;0,0553
736,00;0,0571
735,00;0,0591
734,00;0,0612
733,00;0,0634
732,00;0,0658
731,00;0,0684
730,00;0,0711
729,00;0,0738
728,00;0,0766
727,00;0,0795
726,00;0,0823
725,00;0,0850
724,00;0,0871
723,00;0,0884
722,00;0,0886
721,00;0,0877
720,00;0,0858
719,00;0,0833
718,00;0,0807
717,00;0,0781
716,00;0,0758
715,00;0,0739
714,00;0,0723
713,00;0,0708
712,00;0,0696
711,00;0,0684
710,00;0,0673
709,00;0,0663
708,00;0,0654
707,00;0,0646
706,00;0,0638
705,00;0,0632
704,00;0,0627
703,00;0,0621
702,00;0,0616
701,00;0,0610
700,00;0,0604
699,00;0,0600
698,00;0,0596
697,00;0,0592
696,00;0,0589
695,00;0,0585
694,00;0,0580
693,00;0,0575
692,00;0,0570
691,00;0,0566
690,00;0,0561
689,00;0,0557
688,00;0,0553
687,00;0,0550
686,00;0,0547
685,00;0,0546
684,00;0,0544
683,00;0,0544
682,00;0,0544
681,00;0,0545
680,00;0,0545
679,00;0,0546
678,00;0,0547
677,00;0,0549
676,00;0,0552
675,00;0,0556
674,00;0,0559
673,00;0,0561
672,00;0,0562
671,00;0,0563
670,00;0,0564
669,00;0,0565
668,00;0,0567
667,00;0,0570
666,00;0,0571
665,00;0,0570
664,00;0,0567
663,00;0,0565
662,00;0,0563
661,00;0,0562
660,00;0,0562
659,00;0,0561
658,00;0,0561
657,00;0,0561
656,00;0,0562
655,00;0,0564
654,00;0,0567
653,00;0,0571
652,00;0,0576
651,00;0,0582
650,00;0,0588
649,00;0,0593
648,00;0,0596
647,00;0,0601
646,00;0,0606
645,00;0,0611
644,00;0,0616
643,00;0,0621
642,00;0,0626
641,00;0,0630
640,00;0,0634
639,00;0,0638
638,00;0,0644
637,00;0,0649
636,00;0,0655
635,00;0,0662
634,00;0,0670
633,00;0,0680
632,00;0,0691
631,00;0,0700
630,00;0,0709
629,00;0,0717
628,00;0,0726
627,00;0,0736
626,00;0,0748
625,00;0,0761
624,00;0,0773
623,00;0,0784
622,00;0,0795
621,00;0,0805
620,00;0,0814
619,00;0,0823
618,00;0,0831
617,00;0,0837
616,00;0,0844
615,00;0,0851
614,00;0,0858
613,00;0,0863
612,00;0,0868
611,00;0,0873
610,00;0,0877
609,00;0,0880
608,00;0,0883
607,00;0,0884
606,00;0,0882
605,00;0,0880
604,00;0,0876
603,00;0,0873
602,00;0,0869
601,00;0,0865
600,00;0,0859
599,00;0,0853
598,00;0,0846
597,00;0,0839
596,00;0,0833
595,00;0,0826
594,00;0,0821
593,00;0,0819
592,00;0,0817
591,00;0,0816
590,00;0,0814
589,00;0,0813
588,00;0,0814
587,00;0,0815
586,00;0,0817
585,00;0,0818
584,00;0,0817
583,00;0,0816
582,00;0,0814
581,00;0,0814
580,00;0,0813
579,00;0,0813
578,00;0,0811
577,00;0,0807
576,00;0,0801
575,00;0,0792
574,00;0,0782
573,00;0,0772
572,00;0,0762
571,00;0,0753
570,00;0,0741
569,00;0,0727
568,00;0,0713
567,00;0,0700
566,00;0,0690
565,00;0,0681
564,00;0,0672
563,00;0,0661
562,00;0,0648
561,00;0,0636
560,00;0,0627
559,00;0,0619
558,00;0,0613
557,00;0,0605
556,00;0,0595
555,00;0,0586
554,00;0,0578
553,00;0,0572
552,00;0,0568
551,00;0,0564
550,00;0,0558
549,00;0,0552
548,00;0,0546
547,00;0,0543
546,00;0,0540
545,00;0,0538
544,00;0,0536
543,00;0,0534
542,00;0,0530
541,00;0,0526
540,00;0,0523
539,00;0,0522
538,00;0,0522
537,00;0,0523
536,00;0,0522
535,00;0,0520
534,00;0,0516
533,00;0,0512
532,00;0,0510
531,00;0,0511
530,00;0,0515
529,00;0,0519
528,00;0,0523
527,00;0,0526
526,00;0,0527
525,00;0,0526
524,00;0,0525
523,00;0,0525
522,00;0,0527
521,00;0,0530
520,00;0,0533
519,00;0,0535
518,00;0,0536
517,00;0,0535
516,00;0,0535
515,00;0,0535
514,00;0,0534
513,00;0,0531
512,00;0,0527
511,00;0,0523
510,00;0,0520
509,00;0,0520
508,00;0,0521
507,00;0,0522
506,00;0,0521
505,00;0,0516
504,00;0,0509
503,00;0,0501
502,00;0,0494
501,00;0,0490
500,00;0,0488
499,00;0,0488
498,00;0,0488
497,00;0,0487
496,00;0,0486
495,00;0,0485
494,00;0,0487
493,00;0,0489
492,00;0,0491
491,00;0,0491
490,00;0,0489
489,00;0,0487
488,00;0,0486
487,00;0,0486
486,00;0,0488
485,00;0,0491
484,00;0,0496
483,00;0,0499
482,00;0,0499
481,00;0,0496
480,00;0,0494
479,00;0,0494
478,00;0,0496
477,00;0,0498
476,00;0,0498
475,00;0,0500
474,00;0,0502
473,00;0,0506
472,00;0,0510
471,00;0,0512
470,00;0,0511
469,00;0,0506
468,00;0,0500
467,00;0,0494
466,00;0,0488
465,00;0,0482
464,00;0,0474
463,00;0,0468
462,00;0,0466
461,00;0,0470
460,00;0,0477
459,00;0,0486
458,00;0,0491
457,00;0,0494
456,00;0,0496
455,00;0,0502
454,00;0,0511
453,00;0,0519
452,00;0,0523
451,00;0,0526
450,00;0,0533
449,00;0,0541
448,00;0,0546
447,00;0,0548
446,00;0,0550
445,00;0,0553
444,00;0,0558
443,00;0,0564
442,00;0,0571
441,00;0,0576
440,00;0,0579
439,00;0,0584
438,00;0,0593
437,00;0,0604
436,00;0,0615
435,00;0,0626
434,00;0,0638
433,00;0,0650
432,00;0,0659
431,00;0,0666
430,00;0,0673
429,00;0,0682
428,00;0,0693
427,00;0,0698
426,00;0,0698
425,00;0,0701
424,00;0,0712
423,00;0,0730
422,00;0,0747
421,00;0,0757
420,00;0,0767
419,00;0,0785
418,00;0,0813
417,00;0,0837
416,00;0,0844
415,00;0,0838
414,00;0,0827
413,00;0,0822
412,00;0,0828
411,00;0,0843
410,00;0,0862
409,00;0,0879
408,00;0,0893
407,00;0,0901
406,00;0,0900
405,00;0,0898
404,00;0,0901
403,00;0,0913
402,00;0,0929
401,00;0,0939
400,00;0,0940
