Создан как новый массив данных;Образец 009 полученный BalashovM Дата пятница, апреля 21 2023
cm-1;A
4000,00;0,0261
3999,00;0,0261
3998,00;0,0261
3997,00;0,0261
3996,00;0,0261
3995,00;0,0261
3994,00;0,0261
3993,00;0,0261
3992,00;0,0261
3991,00;0,0261
3990,00;0,0261
3989,00;0,0261
3988,00;0,0261
3987,00;0,0261
3986,00;0,0261
3985,00;0,0261
3984,00;0,0261
3983,00;0,0261
3982,00;0,0261
3981,00;0,0261
3980,00;0,0262
3979,00;0,0262
3978,00;0,0262
3977,00;0,0262
3976,00;0,0262
3975,00;0,0262
3974,00;0,0262
3973,00;0,0262
3972,00;0,0262
3971,00;0,0262
3970,00;0,0262
3969,00;0,0262
3968,00;0,0262
3967,00;0,0262
3966,00;0,0262
3965,00;0,0262
3964,00;0,0262
3963,00;0,0262
3962,00;0,0262
3961,00;0,0262
3960,00;0,0262
3959,00;0,0262
3958,00;0,0262
3957,00;0,0262
3956,00;0,0262
3955,00;0,0263
3954,00;0,0263
3953,00;0,0263
3952,00;0,0263
3951,00;0,0263
3950,00;0,0263
3949,00;0,0263
3948,00;0,0263
3947,00;0,0263
3946,00;0,0263
3945,00;0,0263
3944,00;0,0263
3943,00;0,0263
3942,00;0,0263
3941,00;0,0263
3940,00;0,0263
3939,00;0,0263
3938,00;0,0263
3937,00;0,0264
3936,00;0,0264
3935,00;0,0265
3934,00;0,0265
3933,00;0,0264
3932,00;0,0264
3931,00;0,0264
3930,00;0,0264
3929,00;0,0264
3928,00;0,0264
3927,00;0,0264
3926,00;0,0264
3925,00;0,0264
3924,00;0,0265
3923,00;0,0265
3922,00;0,0265
3921,00;0,0265
3920,00;0,0265
3919,00;0,0265
3918,00;0,0265
3917,00;0,0265
3916,00;0,0264
3915,00;0,0264
3914,00;0,0264
3913,00;0,0264
3912,00;0,0264
3911,00;0,0264
3910,00;0,0265
3909,00;0,0265
3908,00;0,0265
3907,00;0,0265
3906,00;0,0264
3905,00;0,0264
3904,00;0,0264
3903,00;0,0264
3902,00;0,0264
3901,00;0,0263
3900,00;0,0263
3899,00;0,0264
3898,00;0,0264
3897,00;0,0265
3896,00;0,0265
3895,00;0,0265
3894,00;0,0265
3893,00;0,0265
3892,00;0,0265
3891,00;0,0265
3890,00;0,0266
3889,00;0,0266
3888,00;0,0265
3887,00;0,0265
3886,00;0,0265
3885,00;0,0265
3884,00;0,0265
3883,00;0,0265
3882,00;0,0264
3881,00;0,0264
3880,00;0,0265
3879,00;0,0266
3878,00;0,0267
3877,00;0,0266
3876,00;0,0266
3875,00;0,0266
3874,00;0,0266
3873,00;0,0267
3872,00;0,0266
3871,00;0,0265
3870,00;0,0265
3869,00;0,0264
3868,00;0,0264
3867,00;0,0264
3866,00;0,0263
3865,00;0,0264
3864,00;0,0265
3863,00;0,0265
3862,00;0,0266
3861,00;0,0266
3860,00;0,0267
3859,00;0,0267
3858,00;0,0268
3857,00;0,0268
3856,00;0,0267
3855,00;0,0267
3854,00;0,0266
3853,00;0,0266
3852,00;0,0266
3851,00;0,0266
3850,00;0,0265
3849,00;0,0265
3848,00;0,0266
3847,00;0,0267
3846,00;0,0267
3845,00;0,0268
3844,00;0,0268
3843,00;0,0268
3842,00;0,0268
3841,00;0,0267
3840,00;0,0267
3839,00;0,0266
3838,00;0,0266
3837,00;0,0266
3836,00;0,0266
3835,00;0,0266
3834,00;0,0266
3833,00;0,0266
3832,00;0,0266
3831,00;0,0267
3830,00;0,0267
3829,00;0,0267
3828,00;0,0267
3827,00;0,0267
3826,00;0,0267
3825,00;0,0268
3824,00;0,0268
3823,00;0,0268
3822,00;0,0267
3821,00;0,0268
3820,00;0,0268
3819,00;0,0268
3818,00;0,0268
3817,00;0,0268
3816,00;0,0268
3815,00;0,0269
3814,00;0,0269
3813,00;0,0269
3812,00;0,0269
3811,00;0,0269
3810,00;0,0269
3809,00;0,0269
3808,00;0,0268
3807,00;0,0269
3806,00;0,0269
3805,00;0,0269
3804,00;0,0269
3803,00;0,0268
3802,00;0,0268
3801,00;0,0268
3800,00;0,0268
3799,00;0,0268
3798,00;0,0267
3797,00;0,0268
3796,00;0,0268
3795,00;0,0269
3794,00;0,0270
3793,00;0,0270
3792,00;0,0270
3791,00;0,0270
3790,00;0,0271
3789,00;0,0271
3788,00;0,0271
3787,00;0,0271
3786,00;0,0271
3785,00;0,0271
3784,00;0,0271
3783,00;0,0271
3782,00;0,0270
3781,00;0,0270
3780,00;0,0270
3779,00;0,0270
3778,00;0,0271
3777,00;0,0271
3776,00;0,0271
3775,00;0,0272
3774,00;0,0272
3773,00;0,0272
3772,00;0,0272
3771,00;0,0271
3770,00;0,0271
3769,00;0,0271
3768,00;0,0271
3767,00;0,0270
3766,00;0,0270
3765,00;0,0271
3764,00;0,0271
3763,00;0,0272
3762,00;0,0272
3761,00;0,0272
3760,00;0,0272
3759,00;0,0272
3758,00;0,0272
3757,00;0,0272
3756,00;0,0272
3755,00;0,0272
3754,00;0,0273
3753,00;0,0273
3752,00;0,0273
3751,00;0,0272
3750,00;0,0271
3749,00;0,0271
3748,00;0,0271
3747,00;0,0270
3746,00;0,0270
3745,00;0,0270
3744,00;0,0270
3743,00;0,0271
3742,00;0,0271
3741,00;0,0271
3740,00;0,0272
3739,00;0,0273
3738,00;0,0273
3737,00;0,0273
3736,00;0,0272
3735,00;0,0272
3734,00;0,0271
3733,00;0,0271
3732,00;0,0271
3731,00;0,0272
3730,00;0,0273
3729,00;0,0273
3728,00;0,0273
3727,00;0,0273
3726,00;0,0274
3725,00;0,0274
3724,00;0,0274
3723,00;0,0274
3722,00;0,0274
3721,00;0,0274
3720,00;0,0274
3719,00;0,0273
3718,00;0,0273
3717,00;0,0273
3716,00;0,0273
3715,00;0,0273
3714,00;0,0273
3713,00;0,0273
3712,00;0,0273
3711,00;0,0272
3710,00;0,0272
3709,00;0,0272
3708,00;0,0272
3707,00;0,0272
3706,00;0,0273
3705,00;0,0273
3704,00;0,0273
3703,00;0,0273
3702,00;0,0273
3701,00;0,0273
3700,00;0,0273
3699,00;0,0273
3698,00;0,0274
3697,00;0,0274
3696,00;0,0274
3695,00;0,0275
3694,00;0,0275
3693,00;0,0275
3692,00;0,0275
3691,00;0,0275
3690,00;0,0274
3689,00;0,0273
3688,00;0,0273
3687,00;0,0272
3686,00;0,0272
3685,00;0,0272
3684,00;0,0272
3683,00;0,0273
3682,00;0,0274
3681,00;0,0274
3680,00;0,0274
3679,00;0,0275
3678,00;0,0275
3677,00;0,0275
3676,00;0,0274
3675,00;0,0274
3674,00;0,0274
3673,00;0,0274
3672,00;0,0273
3671,00;0,0273
3670,00;0,0273
3669,00;0,0273
3668,00;0,0273
3667,00;0,0273
3666,00;0,0273
3665,00;0,0274
3664,00;0,0274
3663,00;0,0275
3662,00;0,0275
3661,00;0,0276
3660,00;0,0276
3659,00;0,0276
3658,00;0,0276
3657,00;0,0275
3656,00;0,0275
3655,00;0,0275
3654,00;0,0275
3653,00;0,0275
3652,00;0,0274
3651,00;0,0274
3650,00;0,0274
3649,00;0,0274
3648,00;0,0274
3647,00;0,0274
3646,00;0,0274
3645,00;0,0274
3644,00;0,0275
3643,00;0,0275
3642,00;0,0276
3641,00;0,0276
3640,00;0,0277
3639,00;0,0277
3638,00;0,0277
3637,00;0,0277
3636,00;0,0277
3635,00;0,0277
3634,00;0,0277
3633,00;0,0278
3632,00;0,0277
3631,00;0,0277
3630,00;0,0275
3629,00;0,0275
3628,00;0,0275
3627,00;0,0275
3626,00;0,0275
3625,00;0,0276
3624,00;0,0276
3623,00;0,0277
3622,00;0,0277
3621,00;0,0277
3620,00;0,0277
3619,00;0,0278
3618,00;0,0278
3617,00;0,0278
3616,00;0,0278
3615,00;0,0277
3614,00;0,0277
3613,00;0,0277
3612,00;0,0277
3611,00;0,0278
3610,00;0,0278
3609,00;0,0278
3608,00;0,0278
3607,00;0,0278
3606,00;0,0278
3605,00;0,0278
3604,00;0,0278
3603,00;0,0278
3602,00;0,0278
3601,00;0,0278
3600,00;0,0278
3599,00;0,0278
3598,00;0,0279
3597,00;0,0279
3596,00;0,0279
3595,00;0,0279
3594,00;0,0279
3593,00;0,0279
3592,00;0,0280
3591,00;0,0280
3590,00;0,0280
3589,00;0,0279
3588,00;0,0279
3587,00;0,0278
3586,00;0,0278
3585,00;0,0278
3584,00;0,0278
3583,00;0,0278
3582,00;0,0278
3581,00;0,0279
3580,00;0,0279
3579,00;0,0280
3578,00;0,0280
3577,00;0,0281
3576,00;0,0281
3575,00;0,0281
3574,00;0,0281
3573,00;0,0281
3572,00;0,0281
3571,00;0,0281
3570,00;0,0281
3569,00;0,0281
3568,00;0,0281
3567,00;0,0280
3566,00;0,0280
3565,00;0,0279
3564,00;0,0280
3563,00;0,0280
3562,00;0,0280
3561,00;0,0281
3560,00;0,0281
3559,00;0,0281
3558,00;0,0281
3557,00;0,0281
3556,00;0,0281
3555,00;0,0281
3554,00;0,0281
3553,00;0,0281
3552,00;0,0281
3551,00;0,0282
3550,00;0,0282
3549,00;0,0282
3548,00;0,0282
3547,00;0,0282
3546,00;0,0282
3545,00;0,0282
3544,00;0,0281
3543,00;0,0282
3542,00;0,0282
3541,00;0,0282
3540,00;0,0282
3539,00;0,0282
3538,00;0,0283
3537,00;0,0283
3536,00;0,0283
3535,00;0,0283
3534,00;0,0284
3533,00;0,0284
3532,00;0,0284
3531,00;0,0284
3530,00;0,0284
3529,00;0,0284
3528,00;0,0284
3527,00;0,0284
3526,00;0,0284
3525,00;0,0284
3524,00;0,0284
3523,00;0,0284
3522,00;0,0284
3521,00;0,0285
3520,00;0,0285
3519,00;0,0284
3518,00;0,0284
3517,00;0,0284
3516,00;0,0284
3515,00;0,0285
3514,00;0,0285
3513,00;0,0285
3512,00;0,0285
3511,00;0,0285
3510,00;0,0285
3509,00;0,0286
3508,00;0,0286
3507,00;0,0286
3506,00;0,0287
3505,00;0,0287
3504,00;0,0286
3503,00;0,0286
3502,00;0,0286
3501,00;0,0286
3500,00;0,0286
3499,00;0,0286
3498,00;0,0286
3497,00;0,0286
3496,00;0,0286
3495,00;0,0287
3494,00;0,0287
3493,00;0,0287
3492,00;0,0287
3491,00;0,0287
3490,00;0,0287
3489,00;0,0287
3488,00;0,0287
3487,00;0,0287
3486,00;0,0287
3485,00;0,0287
3484,00;0,0287
3483,00;0,0287
3482,00;0,0287
3481,00;0,0287
3480,00;0,0287
3479,00;0,0288
3478,00;0,0288
3477,00;0,0288
3476,00;0,0289
3475,00;0,0289
3474,00;0,0288
3473,00;0,0288
3472,00;0,0288
3471,00;0,0288
3470,00;0,0288
3469,00;0,0288
3468,00;0,0288
3467,00;0,0288
3466,00;0,0289
3465,00;0,0289
3464,00;0,0290
3463,00;0,0290
3462,00;0,0290
3461,00;0,0290
3460,00;0,0290
3459,00;0,0290
3458,00;0,0290
3457,00;0,0290
3456,00;0,0290
3455,00;0,0290
3454,00;0,0290
3453,00;0,0290
3452,00;0,0290
3451,00;0,0290
3450,00;0,0291
3449,00;0,0291
3448,00;0,0291
3447,00;0,0291
3446,00;0,0291
3445,00;0,0291
3444,00;0,0290
3443,00;0,0290
3442,00;0,0290
3441,00;0,0290
3440,00;0,0291
3439,00;0,0291
3438,00;0,0291
3437,00;0,0291
3436,00;0,0291
3435,00;0,0291
3434,00;0,0291
3433,00;0,0291
3432,00;0,0291
3431,00;0,0291
3430,00;0,0291
3429,00;0,0291
3428,00;0,0291
3427,00;0,0292
3426,00;0,0292
3425,00;0,0292
3424,00;0,0291
3423,00;0,0291
3422,00;0,0291
3421,00;0,0291
3420,00;0,0291
3419,00;0,0292
3418,00;0,0292
3417,00;0,0292
3416,00;0,0292
3415,00;0,0292
3414,00;0,0292
3413,00;0,0292
3412,00;0,0292
3411,00;0,0292
3410,00;0,0293
3409,00;0,0293
3408,00;0,0293
3407,00;0,0293
3406,00;0,0293
3405,00;0,0293
3404,00;0,0292
3403,00;0,0292
3402,00;0,0291
3401,00;0,0292
3400,00;0,0292
3399,00;0,0292
3398,00;0,0293
3397,00;0,0293
3396,00;0,0293
3395,00;0,0293
3394,00;0,0293
3393,00;0,0293
3392,00;0,0293
3391,00;0,0293
3390,00;0,0293
3389,00;0,0293
3388,00;0,0293
3387,00;0,0294
3386,00;0,0294
3385,00;0,0294
3384,00;0,0295
3383,00;0,0295
3382,00;0,0295
3381,00;0,0295
3380,00;0,0295
3379,00;0,0295
3378,00;0,0295
3377,00;0,0295
3376,00;0,0295
3375,00;0,0295
3374,00;0,0294
3373,00;0,0294
3372,00;0,0294
3371,00;0,0294
3370,00;0,0294
3369,00;0,0294
3368,00;0,0295
3367,00;0,0295
3366,00;0,0296
3365,00;0,0296
3364,00;0,0296
3363,00;0,0296
3362,00;0,0296
3361,00;0,0296
3360,00;0,0296
3359,00;0,0297
3358,00;0,0297
3357,00;0,0297
3356,00;0,0297
3355,00;0,0297
3354,00;0,0297
3353,00;0,0296
3352,00;0,0296
3351,00;0,0297
3350,00;0,0297
3349,00;0,0297
3348,00;0,0297
3347,00;0,0298
3346,00;0,0298
3345,00;0,0298
3344,00;0,0298
3343,00;0,0298
3342,00;0,0298
3341,00;0,0298
3340,00;0,0298
3339,00;0,0298
3338,00;0,0298
3337,00;0,0299
3336,00;0,0299
3335,00;0,0299
3334,00;0,0299
3333,00;0,0298
3332,00;0,0298
3331,00;0,0298
3330,00;0,0298
3329,00;0,0298
3328,00;0,0298
3327,00;0,0298
3326,00;0,0298
3325,00;0,0298
3324,00;0,0299
3323,00;0,0299
3322,00;0,0299
3321,00;0,0300
3320,00;0,0300
3319,00;0,0300
3318,00;0,0300
3317,00;0,0300
3316,00;0,0300
3315,00;0,0300
3314,00;0,0300
3313,00;0,0300
3312,00;0,0300
3311,00;0,0300
3310,00;0,0300
3309,00;0,0300
3308,00;0,0300
3307,00;0,0300
3306,00;0,0300
3305,00;0,0300
3304,00;0,0300
3303,00;0,0300
3302,00;0,0300
3301,00;0,0300
3300,00;0,0300
3299,00;0,0300
3298,00;0,0300
3297,00;0,0300
3296,00;0,0301
3295,00;0,0300
3294,00;0,0300
3293,00;0,0300
3292,00;0,0301
3291,00;0,0301
3290,00;0,0301
3289,00;0,0302
3288,00;0,0302
3287,00;0,0302
3286,00;0,0302
3285,00;0,0302
3284,00;0,0302
3283,00;0,0302
3282,00;0,0303
3281,00;0,0303
3280,00;0,0303
3279,00;0,0303
3278,00;0,0302
3277,00;0,0302
3276,00;0,0302
3275,00;0,0302
3274,00;0,0302
3273,00;0,0303
3272,00;0,0303
3271,00;0,0303
3270,00;0,0304
3269,00;0,0304
3268,00;0,0304
3267,00;0,0304
3266,00;0,0304
3265,00;0,0304
3264,00;0,0304
3263,00;0,0304
3262,00;0,0304
3261,00;0,0304
3260,00;0,0304
3259,00;0,0304
3258,00;0,0304
3257,00;0,0304
3256,00;0,0304
3255,00;0,0304
3254,00;0,0304
3253,00;0,0304
3252,00;0,0304
3251,00;0,0304
3250,00;0,0304
3249,00;0,0304
3248,00;0,0305
3247,00;0,0305
3246,00;0,0305
3245,00;0,0305
3244,00;0,0305
3243,00;0,0305
3242,00;0,0305
3241,00;0,0306
3240,00;0,0306
3239,00;0,0306
3238,00;0,0306
3237,00;0,0306
3236,00;0,0306
3235,00;0,0305
3234,00;0,0305
3233,00;0,0304
3232,00;0,0305
3231,00;0,0305
3230,00;0,0305
3229,00;0,0305
3228,00;0,0305
3227,00;0,0305
3226,00;0,0306
3225,00;0,0306
3224,00;0,0306
3223,00;0,0306
3222,00;0,0305
3221,00;0,0305
3220,00;0,0305
3219,00;0,0305
3218,00;0,0306
3217,00;0,0306
3216,00;0,0306
3215,00;0,0306
3214,00;0,0306
3213,00;0,0306
3212,00;0,0307
3211,00;0,0307
3210,00;0,0307
3209,00;0,0307
3208,00;0,0307
3207,00;0,0307
3206,00;0,0307
3205,00;0,0307
3204,00;0,0307
3203,00;0,0308
3202,00;0,0308
3201,00;0,0308
3200,00;0,0308
3199,00;0,0308
3198,00;0,0308
3197,00;0,0308
3196,00;0,0308
3195,00;0,0308
3194,00;0,0308
3193,00;0,0308
3192,00;0,0308
3191,00;0,0308
3190,00;0,0308
3189,00;0,0308
3188,00;0,0309
3187,00;0,0309
3186,00;0,0310
3185,00;0,0310
3184,00;0,0310
3183,00;0,0309
3182,00;0,0309
3181,00;0,0309
3180,00;0,0309
3179,00;0,0309
3178,00;0,0309
3177,00;0,0309
3176,00;0,0309
3175,00;0,0309
3174,00;0,0309
3173,00;0,0310
3172,00;0,0310
3171,00;0,0310
3170,00;0,0310
3169,00;0,0310
3168,00;0,0310
3167,00;0,0311
3166,00;0,0311
3165,00;0,0311
3164,00;0,0311
3163,00;0,0311
3162,00;0,0312
3161,00;0,0312
3160,00;0,0312
3159,00;0,0312
3158,00;0,0312
3157,00;0,0311
3156,00;0,0311
3155,00;0,0311
3154,00;0,0310
3153,00;0,0310
3152,00;0,0311
3151,00;0,0311
3150,00;0,0312
3149,00;0,0312
3148,00;0,0312
3147,00;0,0312
3146,00;0,0312
3145,00;0,0312
3144,00;0,0312
3143,00;0,0313
3142,00;0,0312
3141,00;0,0312
3140,00;0,0312
3139,00;0,0312
3138,00;0,0312
3137,00;0,0313
3136,00;0,0313
3135,00;0,0313
3134,00;0,0314
3133,00;0,0314
3132,00;0,0314
3131,00;0,0314
3130,00;0,0313
3129,00;0,0314
3128,00;0,0314
3127,00;0,0314
3126,00;0,0314
3125,00;0,0313
3124,00;0,0313
3123,00;0,0313
3122,00;0,0312
3121,00;0,0312
3120,00;0,0312
3119,00;0,0313
3118,00;0,0313
3117,00;0,0313
3116,00;0,0314
3115,00;0,0314
3114,00;0,0315
3113,00;0,0315
3112,00;0,0315
3111,00;0,0315
3110,00;0,0315
3109,00;0,0315
3108,00;0,0315
3107,00;0,0315
3106,00;0,0315
3105,00;0,0316
3104,00;0,0316
3103,00;0,0316
3102,00;0,0316
3101,00;0,0316
3100,00;0,0316
3099,00;0,0316
3098,00;0,0316
3097,00;0,0316
3096,00;0,0317
3095,00;0,0317
3094,00;0,0317
3093,00;0,0317
3092,00;0,0317
3091,00;0,0317
3090,00;0,0317
3089,00;0,0317
3088,00;0,0317
3087,00;0,0317
3086,00;0,0317
3085,00;0,0317
3084,00;0,0317
3083,00;0,0317
3082,00;0,0317
3081,00;0,0316
3080,00;0,0316
3079,00;0,0317
3078,00;0,0317
3077,00;0,0318
3076,00;0,0318
3075,00;0,0319
3074,00;0,0319
3073,00;0,0319
3072,00;0,0320
3071,00;0,0320
3070,00;0,0320
3069,00;0,0319
3068,00;0,0319
3067,00;0,0319
3066,00;0,0319
3065,00;0,0319
3064,00;0,0320
3063,00;0,0320
3062,00;0,0320
3061,00;0,0320
3060,00;0,0320
3059,00;0,0320
3058,00;0,0321
3057,00;0,0321
3056,00;0,0321
3055,00;0,0321
3054,00;0,0321
3053,00;0,0321
3052,00;0,0321
3051,00;0,0321
3050,00;0,0322
3049,00;0,0322
3048,00;0,0322
3047,00;0,0322
3046,00;0,0322
3045,00;0,0322
3044,00;0,0322
3043,00;0,0322
3042,00;0,0322
3041,00;0,0323
3040,00;0,0323
3039,00;0,0323
3038,00;0,0323
3037,00;0,0323
3036,00;0,0323
3035,00;0,0324
3034,00;0,0324
3033,00;0,0325
3032,00;0,0325
3031,00;0,0325
3030,00;0,0326
3029,00;0,0326
3028,00;0,0326
3027,00;0,0326
3026,00;0,0326
3025,00;0,0326
3024,00;0,0326
3023,00;0,0326
3022,00;0,0326
3021,00;0,0326
3020,00;0,0326
3019,00;0,0326
3018,00;0,0326
3017,00;0,0326
3016,00;0,0325
3015,00;0,0325
3014,00;0,0325
3013,00;0,0326
3012,00;0,0326
3011,00;0,0326
3010,00;0,0327
3009,00;0,0327
3008,00;0,0327
3007,00;0,0327
3006,00;0,0327
3005,00;0,0327
3004,00;0,0327
3003,00;0,0327
3002,00;0,0327
3001,00;0,0328
3000,00;0,0328
2999,00;0,0328
2998,00;0,0328
2997,00;0,0327
2996,00;0,0327
2995,00;0,0327
2994,00;0,0327
2993,00;0,0327
2992,00;0,0327
2991,00;0,0327
2990,00;0,0327
2989,00;0,0327
2988,00;0,0327
2987,00;0,0327
2986,00;0,0327
2985,00;0,0327
2984,00;0,0327
2983,00;0,0326
2982,00;0,0326
2981,00;0,0326
2980,00;0,0326
2979,00;0,0327
2978,00;0,0327
2977,00;0,0327
2976,00;0,0328
2975,00;0,0328
2974,00;0,0329
2973,00;0,0330
2972,00;0,0331
2971,00;0,0332
2970,00;0,0331
2969,00;0,0331
2968,00;0,0330
2967,00;0,0329
2966,00;0,0329
2965,00;0,0328
2964,00;0,0328
2963,00;0,0328
2962,00;0,0328
2961,00;0,0327
2960,00;0,0327
2959,00;0,0327
2958,00;0,0327
2957,00;0,0327
2956,00;0,0327
2955,00;0,0327
2954,00;0,0327
2953,00;0,0327
2952,00;0,0327
2951,00;0,0328
2950,00;0,0328
2949,00;0,0328
2948,00;0,0327
2947,00;0,0327
2946,00;0,0327
2945,00;0,0327
2944,00;0,0327
2943,00;0,0327
2942,00;0,0327
2941,00;0,0327
2940,00;0,0326
2939,00;0,0326
2938,00;0,0326
2937,00;0,0325
2936,00;0,0325
2935,00;0,0325
2934,00;0,0325
2933,00;0,0325
2932,00;0,0324
2931,00;0,0324
2930,00;0,0324
2929,00;0,0323
2928,00;0,0323
2927,00;0,0323
2926,00;0,0323
2925,00;0,0323
2924,00;0,0323
2923,00;0,0323
2922,00;0,0323
2921,00;0,0323
2920,00;0,0323
2919,00;0,0323
2918,00;0,0324
2917,00;0,0324
2916,00;0,0325
2915,00;0,0325
2914,00;0,0326
2913,00;0,0327
2912,00;0,0328
2911,00;0,0328
2910,00;0,0329
2909,00;0,0329
2908,00;0,0329
2907,00;0,0329
2906,00;0,0329
2905,00;0,0329
2904,00;0,0329
2903,00;0,0329
2902,00;0,0330
2901,00;0,0330
2900,00;0,0330
2899,00;0,0331
2898,00;0,0331
2897,00;0,0331
2896,00;0,0331
2895,00;0,0331
2894,00;0,0331
2893,00;0,0331
2892,00;0,0332
2891,00;0,0332
2890,00;0,0332
2889,00;0,0332
2888,00;0,0333
2887,00;0,0333
2886,00;0,0333
2885,00;0,0333
2884,00;0,0333
2883,00;0,0333
2882,00;0,0334
2881,00;0,0334
2880,00;0,0334
2879,00;0,0333
2878,00;0,0333
2877,00;0,0333
2876,00;0,0333
2875,00;0,0333
2874,00;0,0333
2873,00;0,0333
2872,00;0,0334
2871,00;0,0334
2870,00;0,0335
2869,00;0,0334
2868,00;0,0334
2867,00;0,0334
2866,00;0,0334
2865,00;0,0334
2864,00;0,0334
2863,00;0,0334
2862,00;0,0333
2861,00;0,0333
2860,00;0,0332
2859,00;0,0332
2858,00;0,0332
2857,00;0,0332
2856,00;0,0332
2855,00;0,0332
2854,00;0,0332
2853,00;0,0332
2852,00;0,0332
2851,00;0,0333
2850,00;0,0333
2849,00;0,0333
2848,00;0,0334
2847,00;0,0335
2846,00;0,0335
2845,00;0,0336
2844,00;0,0336
2843,00;0,0337
2842,00;0,0337
2841,00;0,0337
2840,00;0,0337
2839,00;0,0337
2838,00;0,0337
2837,00;0,0337
2836,00;0,0337
2835,00;0,0338
2834,00;0,0338
2833,00;0,0339
2832,00;0,0339
2831,00;0,0339
2830,00;0,0339
2829,00;0,0339
2828,00;0,0340
2827,00;0,0340
2826,00;0,0340
2825,00;0,0340
2824,00;0,0340
2823,00;0,0340
2822,00;0,0340
2821,00;0,0340
2820,00;0,0340
2819,00;0,0340
2818,00;0,0340
2817,00;0,0340
2816,00;0,0340
2815,00;0,0341
2814,00;0,0341
2813,00;0,0341
2812,00;0,0341
2811,00;0,0341
2810,00;0,0341
2809,00;0,0341
2808,00;0,0341
2807,00;0,0342
2806,00;0,0342
2805,00;0,0342
2804,00;0,0342
2803,00;0,0342
2802,00;0,0342
2801,00;0,0342
2800,00;0,0342
2799,00;0,0342
2798,00;0,0342
2797,00;0,0342
2796,00;0,0342
2795,00;0,0343
2794,00;0,0343
2793,00;0,0343
2792,00;0,0343
2791,00;0,0343
2790,00;0,0343
2789,00;0,0343
2788,00;0,0343
2787,00;0,0343
2786,00;0,0344
2785,00;0,0344
2784,00;0,0344
2783,00;0,0343
2782,00;0,0343
2781,00;0,0343
2780,00;0,0343
2779,00;0,0343
2778,00;0,0344
2777,00;0,0344
2776,00;0,0344
2775,00;0,0344
2774,00;0,0344
2773,00;0,0345
2772,00;0,0345
2771,00;0,0345
2770,00;0,0345
2769,00;0,0345
2768,00;0,0345
2767,00;0,0345
2766,00;0,0345
2765,00;0,0345
2764,00;0,0345
2763,00;0,0345
2762,00;0,0345
2761,00;0,0345
2760,00;0,0346
2759,00;0,0346
2758,00;0,0346
2757,00;0,0346
2756,00;0,0346
2755,00;0,0346
2754,00;0,0346
2753,00;0,0346
2752,00;0,0346
2751,00;0,0346
2750,00;0,0346
2749,00;0,0346
2748,00;0,0346
2747,00;0,0346
2746,00;0,0347
2745,00;0,0347
2744,00;0,0347
2743,00;0,0347
2742,00;0,0347
2741,00;0,0348
2740,00;0,0349
2739,00;0,0349
2738,00;0,0349
2737,00;0,0349
2736,00;0,0349
2735,00;0,0348
2734,00;0,0348
2733,00;0,0348
2732,00;0,0348
2731,00;0,0349
2730,00;0,0349
2729,00;0,0348
2728,00;0,0348
2727,00;0,0348
2726,00;0,0348
2725,00;0,0348
2724,00;0,0349
2723,00;0,0349
2722,00;0,0349
2721,00;0,0349
2720,00;0,0349
2719,00;0,0349
2718,00;0,0350
2717,00;0,0350
2716,00;0,0350
2715,00;0,0350
2714,00;0,0350
2713,00;0,0350
2712,00;0,0350
2711,00;0,0350
2710,00;0,0350
2709,00;0,0351
2708,00;0,0351
2707,00;0,0351
2706,00;0,0351
2705,00;0,0351
2704,00;0,0351
2703,00;0,0351
2702,00;0,0351
2701,00;0,0352
2700,00;0,0352
2699,00;0,0352
2698,00;0,0352
2697,00;0,0352
2696,00;0,0351
2695,00;0,0351
2694,00;0,0351
2693,00;0,0351
2692,00;0,0351
2691,00;0,0352
2690,00;0,0352
2689,00;0,0352
2688,00;0,0353
2687,00;0,0353
2686,00;0,0353
2685,00;0,0353
2684,00;0,0353
2683,00;0,0353
2682,00;0,0353
2681,00;0,0353
2680,00;0,0353
2679,00;0,0353
2678,00;0,0353
2677,00;0,0353
2676,00;0,0354
2675,00;0,0354
2674,00;0,0354
2673,00;0,0354
2672,00;0,0354
2671,00;0,0354
2670,00;0,0354
2669,00;0,0354
2668,00;0,0354
2667,00;0,0355
2666,00;0,0355
2665,00;0,0356
2664,00;0,0356
2663,00;0,0357
2662,00;0,0357
2661,00;0,0358
2660,00;0,0358
2659,00;0,0359
2658,00;0,0359
2657,00;0,0360
2656,00;0,0360
2655,00;0,0360
2654,00;0,0360
2653,00;0,0360
2652,00;0,0360
2651,00;0,0360
2650,00;0,0360
2649,00;0,0360
2648,00;0,0360
2647,00;0,0360
2646,00;0,0360
2645,00;0,0360
2644,00;0,0360
2643,00;0,0360
2642,00;0,0360
2641,00;0,0359
2640,00;0,0360
2639,00;0,0360
2638,00;0,0360
2637,00;0,0360
2636,00;0,0360
2635,00;0,0360
2634,00;0,0360
2633,00;0,0360
2632,00;0,0359
2631,00;0,0359
2630,00;0,0359
2629,00;0,0359
2628,00;0,0360
2627,00;0,0360
2626,00;0,0360
2625,00;0,0360
2624,00;0,0360
2623,00;0,0360
2622,00;0,0360
2621,00;0,0360
2620,00;0,0360
2619,00;0,0360
2618,00;0,0360
2617,00;0,0360
2616,00;0,0359
2615,00;0,0359
2614,00;0,0358
2613,00;0,0359
2612,00;0,0359
2611,00;0,0359
2610,00;0,0358
2609,00;0,0358
2608,00;0,0358
2607,00;0,0359
2606,00;0,0359
2605,00;0,0359
2604,00;0,0359
2603,00;0,0359
2602,00;0,0360
2601,00;0,0360
2600,00;0,0359
2599,00;0,0359
2598,00;0,0358
2597,00;0,0358
2596,00;0,0358
2595,00;0,0358
2594,00;0,0359
2593,00;0,0359
2592,00;0,0360
2591,00;0,0360
2590,00;0,0360
2589,00;0,0360
2588,00;0,0360
2587,00;0,0359
2586,00;0,0359
2585,00;0,0359
2584,00;0,0359
2583,00;0,0359
2582,00;0,0360
2581,00;0,0360
2580,00;0,0361
2579,00;0,0361
2578,00;0,0361
2577,00;0,0361
2576,00;0,0361
2575,00;0,0361
2574,00;0,0360
2573,00;0,0359
2572,00;0,0359
2571,00;0,0359
2570,00;0,0359
2569,00;0,0360
2568,00;0,0360
2567,00;0,0360
2566,00;0,0360
2565,00;0,0360
2564,00;0,0361
2563,00;0,0361
2562,00;0,0361
2561,00;0,0361
2560,00;0,0360
2559,00;0,0360
2558,00;0,0360
2557,00;0,0360
2556,00;0,0360
2555,00;0,0360
2554,00;0,0360
2553,00;0,0360
2552,00;0,0360
2551,00;0,0361
2550,00;0,0361
2549,00;0,0361
2548,00;0,0361
2547,00;0,0362
2546,00;0,0362
2545,00;0,0363
2544,00;0,0363
2543,00;0,0363
2542,00;0,0363
2541,00;0,0363
2540,00;0,0363
2539,00;0,0363
2538,00;0,0363
2537,00;0,0363
2536,00;0,0363
2535,00;0,0362
2534,00;0,0362
2533,00;0,0362
2532,00;0,0362
2531,00;0,0362
2530,00;0,0361
2529,00;0,0362
2528,00;0,0362
2527,00;0,0363
2526,00;0,0364
2525,00;0,0364
2524,00;0,0364
2523,00;0,0363
2522,00;0,0362
2521,00;0,0362
2520,00;0,0362
2519,00;0,0362
2518,00;0,0362
2517,00;0,0363
2516,00;0,0363
2515,00;0,0363
2514,00;0,0364
2513,00;0,0364
2512,00;0,0364
2511,00;0,0364
2510,00;0,0364
2509,00;0,0364
2508,00;0,0364
2507,00;0,0365
2506,00;0,0365
2505,00;0,0364
2504,00;0,0364
2503,00;0,0364
2502,00;0,0365
2501,00;0,0365
2500,00;0,0365
2499,00;0,0365
2498,00;0,0365
2497,00;0,0365
2496,00;0,0365
2495,00;0,0366
2494,00;0,0366
2493,00;0,0367
2492,00;0,0367
2491,00;0,0368
2490,00;0,0367
2489,00;0,0367
2488,00;0,0366
2487,00;0,0366
2486,00;0,0366
2485,00;0,0366
2484,00;0,0367
2483,00;0,0367
2482,00;0,0366
2481,00;0,0366
2480,00;0,0366
2479,00;0,0366
2478,00;0,0367
2477,00;0,0367
2476,00;0,0368
2475,00;0,0368
2474,00;0,0369
2473,00;0,0369
2472,00;0,0369
2471,00;0,0369
2470,00;0,0368
2469,00;0,0368
2468,00;0,0368
2467,00;0,0368
2466,00;0,0368
2465,00;0,0368
2464,00;0,0368
2463,00;0,0369
2462,00;0,0369
2461,00;0,0370
2460,00;0,0370
2459,00;0,0370
2458,00;0,0370
2457,00;0,0370
2456,00;0,0370
2455,00;0,0371
2454,00;0,0371
2453,00;0,0372
2452,00;0,0372
2451,00;0,0372
2450,00;0,0372
2449,00;0,0372
2448,00;0,0372
2447,00;0,0372
2446,00;0,0372
2445,00;0,0371
2444,00;0,0372
2443,00;0,0372
2442,00;0,0372
2441,00;0,0372
2440,00;0,0372
2439,00;0,0372
2438,00;0,0372
2437,00;0,0372
2436,00;0,0373
2435,00;0,0373
2434,00;0,0373
2433,00;0,0373
2432,00;0,0372
2431,00;0,0372
2430,00;0,0372
2429,00;0,0372
2428,00;0,0372
2427,00;0,0372
2426,00;0,0372
2425,00;0,0372
2424,00;0,0372
2423,00;0,0372
2422,00;0,0372
2421,00;0,0372
2420,00;0,0373
2419,00;0,0373
2418,00;0,0373
2417,00;0,0373
2416,00;0,0373
2415,00;0,0373
2414,00;0,0373
2413,00;0,0374
2412,00;0,0374
2411,00;0,0374
2410,00;0,0375
2409,00;0,0374
2408,00;0,0374
2407,00;0,0374
2406,00;0,0374
2405,00;0,0374
2404,00;0,0374
2403,00;0,0375
2402,00;0,0375
2401,00;0,0374
2400,00;0,0374
2399,00;0,0374
2398,00;0,0374
2397,00;0,0374
2396,00;0,0375
2395,00;0,0375
2394,00;0,0375
2393,00;0,0376
2392,00;0,0376
2391,00;0,0376
2390,00;0,0377
2389,00;0,0377
2388,00;0,0377
2387,00;0,0377
2386,00;0,0378
2385,00;0,0378
2384,00;0,0379
2383,00;0,0378
2382,00;0,0378
2381,00;0,0377
2380,00;0,0377
2379,00;0,0377
2378,00;0,0377
2377,00;0,0378
2376,00;0,0379
2375,00;0,0379
2374,00;0,0380
2373,00;0,0379
2372,00;0,0379
2371,00;0,0379
2370,00;0,0380
2369,00;0,0381
2368,00;0,0381
2367,00;0,0381
2366,00;0,0380
2365,00;0,0380
2364,00;0,0382
2363,00;0,0383
2362,00;0,0385
2361,00;0,0386
2360,00;0,0386
2359,00;0,0385
2358,00;0,0384
2357,00;0,0382
2356,00;0,0381
2355,00;0,0382
2354,00;0,0382
2353,00;0,0384
2352,00;0,0385
2351,00;0,0385
2350,00;0,0385
2349,00;0,0385
2348,00;0,0386
2347,00;0,0387
2346,00;0,0389
2345,00;0,0391
2344,00;0,0391
2343,00;0,0391
2342,00;0,0390
2341,00;0,0389
2340,00;0,0389
2339,00;0,0389
2338,00;0,0389
2337,00;0,0388
2336,00;0,0388
2335,00;0,0388
2334,00;0,0388
2333,00;0,0388
2332,00;0,0388
2331,00;0,0389
2330,00;0,0389
2329,00;0,0389
2328,00;0,0390
2327,00;0,0393
2326,00;0,0397
2325,00;0,0401
2324,00;0,0403
2323,00;0,0403
2322,00;0,0402
2321,00;0,0401
2320,00;0,0400
2319,00;0,0399
2318,00;0,0398
2317,00;0,0397
2316,00;0,0396
2315,00;0,0396
2314,00;0,0397
2313,00;0,0397
2312,00;0,0398
2311,00;0,0398
2310,00;0,0398
2309,00;0,0399
2308,00;0,0399
2307,00;0,0399
2306,00;0,0400
2305,00;0,0400
2304,00;0,0400
2303,00;0,0400
2302,00;0,0399
2301,00;0,0399
2300,00;0,0400
2299,00;0,0400
2298,00;0,0401
2297,00;0,0401
2296,00;0,0401
2295,00;0,0402
2294,00;0,0402
2293,00;0,0403
2292,00;0,0403
2291,00;0,0403
2290,00;0,0403
2289,00;0,0404
2288,00;0,0405
2287,00;0,0406
2286,00;0,0406
2285,00;0,0406
2284,00;0,0406
2283,00;0,0405
2282,00;0,0403
2281,00;0,0402
2280,00;0,0402
2279,00;0,0402
2278,00;0,0402
2277,00;0,0403
2276,00;0,0402
2275,00;0,0402
2274,00;0,0402
2273,00;0,0401
2272,00;0,0401
2271,00;0,0401
2270,00;0,0401
2269,00;0,0401
2268,00;0,0401
2267,00;0,0401
2266,00;0,0401
2265,00;0,0400
2264,00;0,0400
2263,00;0,0399
2262,00;0,0398
2261,00;0,0398
2260,00;0,0397
2259,00;0,0398
2258,00;0,0399
2257,00;0,0399
2256,00;0,0400
2255,00;0,0400
2254,00;0,0399
2253,00;0,0399
2252,00;0,0398
2251,00;0,0397
2250,00;0,0397
2249,00;0,0397
2248,00;0,0397
2247,00;0,0398
2246,00;0,0398
2245,00;0,0399
2244,00;0,0400
2243,00;0,0400
2242,00;0,0399
2241,00;0,0398
2240,00;0,0398
2239,00;0,0399
2238,00;0,0400
2237,00;0,0402
2236,00;0,0404
2235,00;0,0405
2234,00;0,0405
2233,00;0,0404
2232,00;0,0403
2231,00;0,0402
2230,00;0,0401
2229,00;0,0401
2228,00;0,0402
2227,00;0,0402
2226,00;0,0401
2225,00;0,0400
2224,00;0,0398
2223,00;0,0398
2222,00;0,0398
2221,00;0,0399
2220,00;0,0400
2219,00;0,0402
2218,00;0,0403
2217,00;0,0404
2216,00;0,0403
2215,00;0,0402
2214,00;0,0399
2213,00;0,0398
2212,00;0,0398
2211,00;0,0398
2210,00;0,0399
2209,00;0,0399
2208,00;0,0400
2207,00;0,0403
2206,00;0,0405
2205,00;0,0407
2204,00;0,0408
2203,00;0,0407
2202,00;0,0405
2201,00;0,0404
2200,00;0,0405
2199,00;0,0406
2198,00;0,0408
2197,00;0,0409
2196,00;0,0409
2195,00;0,0409
2194,00;0,0408
2193,00;0,0409
2192,00;0,0409
2191,00;0,0409
2190,00;0,0408
2189,00;0,0408
2188,00;0,0408
2187,00;0,0409
2186,00;0,0411
2185,00;0,0413
2184,00;0,0412
2183,00;0,0410
2182,00;0,0406
2181,00;0,0403
2180,00;0,0402
2179,00;0,0403
2178,00;0,0404
2177,00;0,0406
2176,00;0,0406
2175,00;0,0406
2174,00;0,0406
2173,00;0,0406
2172,00;0,0408
2171,00;0,0410
2170,00;0,0411
2169,00;0,0414
2168,00;0,0416
2167,00;0,0419
2166,00;0,0421
2165,00;0,0421
2164,00;0,0420
2163,00;0,0420
2162,00;0,0419
2161,00;0,0415
2160,00;0,0407
2159,00;0,0395
2158,00;0,0384
2157,00;0,0376
2156,00;0,0375
2155,00;0,0377
2154,00;0,0381
2153,00;0,0386
2152,00;0,0391
2151,00;0,0395
2150,00;0,0397
2149,00;0,0397
2148,00;0,0396
2147,00;0,0395
2146,00;0,0394
2145,00;0,0392
2144,00;0,0392
2143,00;0,0392
2142,00;0,0393
2141,00;0,0395
2140,00;0,0396
2139,00;0,0397
2138,00;0,0397
2137,00;0,0398
2136,00;0,0397
2135,00;0,0395
2134,00;0,0392
2133,00;0,0391
2132,00;0,0391
2131,00;0,0393
2130,00;0,0395
2129,00;0,0398
2128,00;0,0400
2127,00;0,0403
2126,00;0,0404
2125,00;0,0405
2124,00;0,0406
2123,00;0,0408
2122,00;0,0409
2121,00;0,0410
2120,00;0,0410
2119,00;0,0410
2118,00;0,0411
2117,00;0,0411
2116,00;0,0412
2115,00;0,0413
2114,00;0,0414
2113,00;0,0415
2112,00;0,0415
2111,00;0,0416
2110,00;0,0416
2109,00;0,0415
2108,00;0,0415
2107,00;0,0414
2106,00;0,0414
2105,00;0,0415
2104,00;0,0416
2103,00;0,0417
2102,00;0,0417
2101,00;0,0418
2100,00;0,0417
2099,00;0,0417
2098,00;0,0416
2097,00;0,0415
2096,00;0,0414
2095,00;0,0413
2094,00;0,0413
2093,00;0,0414
2092,00;0,0416
2091,00;0,0418
2090,00;0,0420
2089,00;0,0421
2088,00;0,0422
2087,00;0,0422
2086,00;0,0422
2085,00;0,0422
2084,00;0,0421
2083,00;0,0421
2082,00;0,0422
2081,00;0,0423
2080,00;0,0425
2079,00;0,0426
2078,00;0,0428
2077,00;0,0429
2076,00;0,0429
2075,00;0,0428
2074,00;0,0427
2073,00;0,0426
2072,00;0,0425
2071,00;0,0423
2070,00;0,0422
2069,00;0,0421
2068,00;0,0421
2067,00;0,0422
2066,00;0,0424
2065,00;0,0426
2064,00;0,0428
2063,00;0,0428
2062,00;0,0428
2061,00;0,0427
2060,00;0,0425
2059,00;0,0425
2058,00;0,0425
2057,00;0,0426
2056,00;0,0426
2055,00;0,0425
2054,00;0,0426
2053,00;0,0429
2052,00;0,0434
2051,00;0,0439
2050,00;0,0442
2049,00;0,0440
2048,00;0,0437
2047,00;0,0434
2046,00;0,0432
2045,00;0,0431
2044,00;0,0429
2043,00;0,0428
2042,00;0,0427
2041,00;0,0427
2040,00;0,0427
2039,00;0,0427
2038,00;0,0427
2037,00;0,0428
2036,00;0,0429
2035,00;0,0428
2034,00;0,0427
2033,00;0,0425
2032,00;0,0424
2031,00;0,0423
2030,00;0,0421
2029,00;0,0419
2028,00;0,0418
2027,00;0,0418
2026,00;0,0419
2025,00;0,0421
2024,00;0,0423
2023,00;0,0424
2022,00;0,0425
2021,00;0,0426
2020,00;0,0427
2019,00;0,0428
2018,00;0,0427
2017,00;0,0425
2016,00;0,0423
2015,00;0,0421
2014,00;0,0419
2013,00;0,0418
2012,00;0,0418
2011,00;0,0419
2010,00;0,0421
2009,00;0,0423
2008,00;0,0422
2007,00;0,0419
2006,00;0,0416
2005,00;0,0416
2004,00;0,0419
2003,00;0,0422
2002,00;0,0425
2001,00;0,0427
2000,00;0,0428
1999,00;0,0428
1998,00;0,0427
1997,00;0,0426
1996,00;0,0426
1995,00;0,0426
1994,00;0,0428
1993,00;0,0430
1992,00;0,0433
1991,00;0,0434
1990,00;0,0434
1989,00;0,0434
1988,00;0,0434
1987,00;0,0435
1986,00;0,0437
1985,00;0,0440
1984,00;0,0442
1983,00;0,0445
1982,00;0,0448
1981,00;0,0451
1980,00;0,0451
1979,00;0,0448
1978,00;0,0442
1977,00;0,0435
1976,00;0,0430
1975,00;0,0428
1974,00;0,0427
1973,00;0,0427
1972,00;0,0429
1971,00;0,0431
1970,00;0,0431
1969,00;0,0428
1968,00;0,0426
1967,00;0,0426
1966,00;0,0427
1965,00;0,0430
1964,00;0,0432
1963,00;0,0433
1962,00;0,0432
1961,00;0,0430
1960,00;0,0429
1959,00;0,0427
1958,00;0,0426
1957,00;0,0425
1956,00;0,0426
1955,00;0,0428
1954,00;0,0430
1953,00;0,0431
1952,00;0,0433
1951,00;0,0433
1950,00;0,0434
1949,00;0,0434
1948,00;0,0433
1947,00;0,0433
1946,00;0,0433
1945,00;0,0433
1944,00;0,0435
1943,00;0,0436
1942,00;0,0437
1941,00;0,0437
1940,00;0,0436
1939,00;0,0435
1938,00;0,0433
1937,00;0,0432
1936,00;0,0432
1935,00;0,0433
1934,00;0,0434
1933,00;0,0434
1932,00;0,0435
1931,00;0,0436
1930,00;0,0436
1929,00;0,0437
1928,00;0,0436
1927,00;0,0436
1926,00;0,0437
1925,00;0,0437
1924,00;0,0438
1923,00;0,0438
1922,00;0,0440
1921,00;0,0441
1920,00;0,0442
1919,00;0,0444
1918,00;0,0444
1917,00;0,0445
1916,00;0,0445
1915,00;0,0444
1914,00;0,0444
1913,00;0,0443
1912,00;0,0443
1911,00;0,0444
1910,00;0,0445
1909,00;0,0446
1908,00;0,0448
1907,00;0,0448
1906,00;0,0449
1905,00;0,0448
1904,00;0,0448
1903,00;0,0447
1902,00;0,0447
1901,00;0,0448
1900,00;0,0448
1899,00;0,0449
1898,00;0,0448
1897,00;0,0447
1896,00;0,0447
1895,00;0,0447
1894,00;0,0448
1893,00;0,0449
1892,00;0,0450
1891,00;0,0449
1890,00;0,0449
1889,00;0,0448
1888,00;0,0448
1887,00;0,0448
1886,00;0,0449
1885,00;0,0449
1884,00;0,0450
1883,00;0,0450
1882,00;0,0450
1881,00;0,0450
1880,00;0,0450
1879,00;0,0451
1878,00;0,0452
1877,00;0,0452
1876,00;0,0453
1875,00;0,0453
1874,00;0,0453
1873,00;0,0453
1872,00;0,0453
1871,00;0,0452
1870,00;0,0452
1869,00;0,0452
1868,00;0,0453
1867,00;0,0454
1866,00;0,0454
1865,00;0,0454
1864,00;0,0455
1863,00;0,0455
1862,00;0,0456
1861,00;0,0456
1860,00;0,0456
1859,00;0,0456
1858,00;0,0457
1857,00;0,0457
1856,00;0,0457
1855,00;0,0458
1854,00;0,0458
1853,00;0,0458
1852,00;0,0458
1851,00;0,0458
1850,00;0,0458
1849,00;0,0457
1848,00;0,0457
1847,00;0,0456
1846,00;0,0456
1845,00;0,0457
1844,00;0,0458
1843,00;0,0459
1842,00;0,0459
1841,00;0,0459
1840,00;0,0460
1839,00;0,0460
1838,00;0,0461
1837,00;0,0461
1836,00;0,0461
1835,00;0,0461
1834,00;0,0462
1833,00;0,0462
1832,00;0,0462
1831,00;0,0463
1830,00;0,0463
1829,00;0,0464
1828,00;0,0464
1827,00;0,0464
1826,00;0,0464
1825,00;0,0464
1824,00;0,0464
1823,00;0,0465
1822,00;0,0466
1821,00;0,0467
1820,00;0,0467
1819,00;0,0466
1818,00;0,0465
1817,00;0,0465
1816,00;0,0464
1815,00;0,0465
1814,00;0,0466
1813,00;0,0467
1812,00;0,0467
1811,00;0,0468
1810,00;0,0469
1809,00;0,0469
1808,00;0,0470
1807,00;0,0471
1806,00;0,0471
1805,00;0,0471
1804,00;0,0471
1803,00;0,0472
1802,00;0,0472
1801,00;0,0472
1800,00;0,0473
1799,00;0,0474
1798,00;0,0474
1797,00;0,0475
1796,00;0,0476
1795,00;0,0476
1794,00;0,0477
1793,00;0,0478
1792,00;0,0478
1791,00;0,0479
1790,00;0,0479
1789,00;0,0480
1788,00;0,0480
1787,00;0,0480
1786,00;0,0480
1785,00;0,0480
1784,00;0,0481
1783,00;0,0481
1782,00;0,0482
1781,00;0,0482
1780,00;0,0483
1779,00;0,0484
1778,00;0,0484
1777,00;0,0485
1776,00;0,0486
1775,00;0,0487
1774,00;0,0488
1773,00;0,0489
1772,00;0,0490
1771,00;0,0492
1770,00;0,0493
1769,00;0,0493
1768,00;0,0494
1767,00;0,0495
1766,00;0,0496
1765,00;0,0498
1764,00;0,0499
1763,00;0,0501
1762,00;0,0502
1761,00;0,0504
1760,00;0,0505
1759,00;0,0506
1758,00;0,0508
1757,00;0,0509
1756,00;0,0511
1755,00;0,0513
1754,00;0,0514
1753,00;0,0515
1752,00;0,0515
1751,00;0,0516
1750,00;0,0517
1749,00;0,0518
1748,00;0,0519
1747,00;0,0521
1746,00;0,0522
1745,00;0,0523
1744,00;0,0524
1743,00;0,0525
1742,00;0,0525
1741,00;0,0527
1740,00;0,0528
1739,00;0,0529
1738,00;0,0529
1737,00;0,0529
1736,00;0,0528
1735,00;0,0526
1734,00;0,0524
1733,00;0,0522
1732,00;0,0521
1731,00;0,0521
1730,00;0,0521
1729,00;0,0521
1728,00;0,0522
1727,00;0,0522
1726,00;0,0522
1725,00;0,0521
1724,00;0,0521
1723,00;0,0520
1722,00;0,0520
1721,00;0,0519
1720,00;0,0518
1719,00;0,0518
1718,00;0,0517
1717,00;0,0516
1716,00;0,0514
1715,00;0,0512
1714,00;0,0511
1713,00;0,0510
1712,00;0,0509
1711,00;0,0508
1710,00;0,0507
1709,00;0,0506
1708,00;0,0505
1707,00;0,0503
1706,00;0,0502
1705,00;0,0501
1704,00;0,0500
1703,00;0,0500
1702,00;0,0500
1701,00;0,0500
1700,00;0,0500
1699,00;0,0500
1698,00;0,0500
1697,00;0,0499
1696,00;0,0498
1695,00;0,0498
1694,00;0,0498
1693,00;0,0498
1692,00;0,0498
1691,00;0,0498
1690,00;0,0499
1689,00;0,0499
1688,00;0,0499
1687,00;0,0500
1686,00;0,0500
1685,00;0,0500
1684,00;0,0500
1683,00;0,0500
1682,00;0,0500
1681,00;0,0499
1680,00;0,0499
1679,00;0,0499
1678,00;0,0499
1677,00;0,0500
1676,00;0,0500
1675,00;0,0501
1674,00;0,0501
1673,00;0,0502
1672,00;0,0502
1671,00;0,0502
1670,00;0,0501
1669,00;0,0502
1668,00;0,0502
1667,00;0,0502
1666,00;0,0502
1665,00;0,0503
1664,00;0,0503
1663,00;0,0503
1662,00;0,0503
1661,00;0,0504
1660,00;0,0505
1659,00;0,0505
1658,00;0,0506
1657,00;0,0506
1656,00;0,0507
1655,00;0,0507
1654,00;0,0506
1653,00;0,0506
1652,00;0,0507
1651,00;0,0507
1650,00;0,0507
1649,00;0,0507
1648,00;0,0507
1647,00;0,0508
1646,00;0,0508
1645,00;0,0508
1644,00;0,0508
1643,00;0,0508
1642,00;0,0508
1641,00;0,0508
1640,00;0,0509
1639,00;0,0509
1638,00;0,0509
1637,00;0,0509
1636,00;0,0509
1635,00;0,0510
1634,00;0,0510
1633,00;0,0511
1632,00;0,0511
1631,00;0,0511
1630,00;0,0511
1629,00;0,0511
1628,00;0,0512
1627,00;0,0512
1626,00;0,0512
1625,00;0,0512
1624,00;0,0513
1623,00;0,0513
1622,00;0,0513
1621,00;0,0514
1620,00;0,0514
1619,00;0,0514
1618,00;0,0514
1617,00;0,0515
1616,00;0,0515
1615,00;0,0516
1614,00;0,0516
1613,00;0,0516
1612,00;0,0516
1611,00;0,0516
1610,00;0,0516
1609,00;0,0516
1608,00;0,0517
1607,00;0,0517
1606,00;0,0517
1605,00;0,0517
1604,00;0,0517
1603,00;0,0517
1602,00;0,0517
1601,00;0,0518
1600,00;0,0518
1599,00;0,0518
1598,00;0,0518
1597,00;0,0519
1596,00;0,0520
1595,00;0,0520
1594,00;0,0520
1593,00;0,0521
1592,00;0,0521
1591,00;0,0521
1590,00;0,0521
1589,00;0,0521
1588,00;0,0522
1587,00;0,0522
1586,00;0,0522
1585,00;0,0523
1584,00;0,0523
1583,00;0,0524
1582,00;0,0524
1581,00;0,0524
1580,00;0,0524
1579,00;0,0524
1578,00;0,0525
1577,00;0,0525
1576,00;0,0526
1575,00;0,0525
1574,00;0,0525
1573,00;0,0525
1572,00;0,0525
1571,00;0,0525
1570,00;0,0526
1569,00;0,0526
1568,00;0,0527
1567,00;0,0527
1566,00;0,0528
1565,00;0,0528
1564,00;0,0528
1563,00;0,0529
1562,00;0,0529
1561,00;0,0529
1560,00;0,0530
1559,00;0,0529
1558,00;0,0529
1557,00;0,0530
1556,00;0,0530
1555,00;0,0530
1554,00;0,0530
1553,00;0,0531
1552,00;0,0531
1551,00;0,0532
1550,00;0,0532
1549,00;0,0532
1548,00;0,0533
1547,00;0,0533
1546,00;0,0534
1545,00;0,0534
1544,00;0,0535
1543,00;0,0535
1542,00;0,0535
1541,00;0,0536
1540,00;0,0537
1539,00;0,0537
1538,00;0,0538
1537,00;0,0538
1536,00;0,0538
1535,00;0,0539
1534,00;0,0540
1533,00;0,0540
1532,00;0,0541
1531,00;0,0542
1530,00;0,0543
1529,00;0,0544
1528,00;0,0544
1527,00;0,0545
1526,00;0,0545
1525,00;0,0545
1524,00;0,0545
1523,00;0,0546
1522,00;0,0546
1521,00;0,0546
1520,00;0,0547
1519,00;0,0547
1518,00;0,0548
1517,00;0,0548
1516,00;0,0549
1515,00;0,0550
1514,00;0,0551
1513,00;0,0552
1512,00;0,0552
1511,00;0,0552
1510,00;0,0553
1509,00;0,0553
1508,00;0,0553
1507,00;0,0553
1506,00;0,0553
1505,00;0,0554
1504,00;0,0555
1503,00;0,0556
1502,00;0,0558
1501,00;0,0559
1500,00;0,0560
1499,00;0,0561
1498,00;0,0562
1497,00;0,0562
1496,00;0,0562
1495,00;0,0562
1494,00;0,0561
1493,00;0,0561
1492,00;0,0561
1491,00;0,0561
1490,00;0,0561
1489,00;0,0561
1488,00;0,0561
1487,00;0,0562
1486,00;0,0563
1485,00;0,0564
1484,00;0,0566
1483,00;0,0566
1482,00;0,0567
1481,00;0,0567
1480,00;0,0568
1479,00;0,0568
1478,00;0,0569
1477,00;0,0569
1476,00;0,0570
1475,00;0,0570
1474,00;0,0570
1473,00;0,0570
1472,00;0,0569
1471,00;0,0569
1470,00;0,0570
1469,00;0,0570
1468,00;0,0571
1467,00;0,0572
1466,00;0,0572
1465,00;0,0572
1464,00;0,0572
1463,00;0,0573
1462,00;0,0574
1461,00;0,0575
1460,00;0,0576
1459,00;0,0577
1458,00;0,0578
1457,00;0,0578
1456,00;0,0577
1455,00;0,0577
1454,00;0,0578
1453,00;0,0579
1452,00;0,0579
1451,00;0,0580
1450,00;0,0580
1449,00;0,0580
1448,00;0,0580
1447,00;0,0580
1446,00;0,0580
1445,00;0,0581
1444,00;0,0582
1443,00;0,0583
1442,00;0,0584
1441,00;0,0584
1440,00;0,0585
1439,00;0,0585
1438,00;0,0585
1437,00;0,0585
1436,00;0,0585
1435,00;0,0585
1434,00;0,0585
1433,00;0,0586
1432,00;0,0587
1431,00;0,0587
1430,00;0,0588
1429,00;0,0588
1428,00;0,0588
1427,00;0,0589
1426,00;0,0590
1425,00;0,0591
1424,00;0,0591
1423,00;0,0591
1422,00;0,0592
1421,00;0,0592
1420,00;0,0592
1419,00;0,0592
1418,00;0,0593
1417,00;0,0593
1416,00;0,0595
1415,00;0,0596
1414,00;0,0597
1413,00;0,0599
1412,00;0,0600
1411,00;0,0602
1410,00;0,0603
1409,00;0,0605
1408,00;0,0606
1407,00;0,0607
1406,00;0,0608
1405,00;0,0609
1404,00;0,0609
1403,00;0,0610
1402,00;0,0610
1401,00;0,0611
1400,00;0,0611
1399,00;0,0611
1398,00;0,0611
1397,00;0,0611
1396,00;0,0612
1395,00;0,0612
1394,00;0,0612
1393,00;0,0613
1392,00;0,0613
1391,00;0,0614
1390,00;0,0614
1389,00;0,0615
1388,00;0,0616
1387,00;0,0616
1386,00;0,0617
1385,00;0,0618
1384,00;0,0620
1383,00;0,0621
1382,00;0,0622
1381,00;0,0624
1380,00;0,0625
1379,00;0,0625
1378,00;0,0626
1377,00;0,0627
1376,00;0,0628
1375,00;0,0629
1374,00;0,0629
1373,00;0,0629
1372,00;0,0630
1371,00;0,0630
1370,00;0,0630
1369,00;0,0630
1368,00;0,0631
1367,00;0,0632
1366,00;0,0632
1365,00;0,0632
1364,00;0,0631
1363,00;0,0629
1362,00;0,0628
1361,00;0,0628
1360,00;0,0627
1359,00;0,0627
1358,00;0,0627
1357,00;0,0626
1356,00;0,0626
1355,00;0,0626
1354,00;0,0626
1353,00;0,0626
1352,00;0,0626
1351,00;0,0626
1350,00;0,0625
1349,00;0,0625
1348,00;0,0624
1347,00;0,0623
1346,00;0,0622
1345,00;0,0621
1344,00;0,0621
1343,00;0,0620
1342,00;0,0619
1341,00;0,0618
1340,00;0,0617
1339,00;0,0616
1338,00;0,0616
1337,00;0,0616
1336,00;0,0616
1335,00;0,0615
1334,00;0,0615
1333,00;0,0615
1332,00;0,0615
1331,00;0,0615
1330,00;0,0615
1329,00;0,0615
1328,00;0,0615
1327,00;0,0615
1326,00;0,0615
1325,00;0,0615
1324,00;0,0615
1323,00;0,0615
1322,00;0,0615
1321,00;0,0615
1320,00;0,0615
1319,00;0,0615
1318,00;0,0615
1317,00;0,0615
1316,00;0,0616
1315,00;0,0616
1314,00;0,0616
1313,00;0,0616
1312,00;0,0616
1311,00;0,0616
1310,00;0,0616
1309,00;0,0616
1308,00;0,0617
1307,00;0,0617
1306,00;0,0617
1305,00;0,0618
1304,00;0,0618
1303,00;0,0618
1302,00;0,0619
1301,00;0,0619
1300,00;0,0619
1299,00;0,0619
1298,00;0,0619
1297,00;0,0620
1296,00;0,0620
1295,00;0,0621
1294,00;0,0621
1293,00;0,0621
1292,00;0,0621
1291,00;0,0621
1290,00;0,0621
1289,00;0,0621
1288,00;0,0622
1287,00;0,0622
1286,00;0,0623
1285,00;0,0623
1284,00;0,0624
1283,00;0,0624
1282,00;0,0624
1281,00;0,0624
1280,00;0,0624
1279,00;0,0624
1278,00;0,0624
1277,00;0,0625
1276,00;0,0625
1275,00;0,0626
1274,00;0,0627
1273,00;0,0627
1272,00;0,0628
1271,00;0,0628
1270,00;0,0628
1269,00;0,0629
1268,00;0,0629
1267,00;0,0630
1266,00;0,0630
1265,00;0,0630
1264,00;0,0631
1263,00;0,0631
1262,00;0,0631
1261,00;0,0632
1260,00;0,0632
1259,00;0,0632
1258,00;0,0633
1257,00;0,0633
1256,00;0,0634
1255,00;0,0634
1254,00;0,0635
1253,00;0,0635
1252,00;0,0636
1251,00;0,0637
1250,00;0,0638
1249,00;0,0639
1248,00;0,0640
1247,00;0,0641
1246,00;0,0641
1245,00;0,0642
1244,00;0,0644
1243,00;0,0645
1242,00;0,0647
1241,00;0,0649
1240,00;0,0651
1239,00;0,0653
1238,00;0,0655
1237,00;0,0658
1236,00;0,0661
1235,00;0,0663
1234,00;0,0666
1233,00;0,0668
1232,00;0,0671
1231,00;0,0672
1230,00;0,0674
1229,00;0,0675
1228,00;0,0675
1227,00;0,0675
1226,00;0,0675
1225,00;0,0674
1224,00;0,0673
1223,00;0,0673
1222,00;0,0674
1221,00;0,0676
1220,00;0,0680
1219,00;0,0684
1218,00;0,0686
1217,00;0,0687
1216,00;0,0686
1215,00;0,0684
1214,00;0,0682
1213,00;0,0681
1212,00;0,0681
1211,00;0,0681
1210,00;0,0682
1209,00;0,0683
1208,00;0,0684
1207,00;0,0684
1206,00;0,0685
1205,00;0,0685
1204,00;0,0686
1203,00;0,0685
1202,00;0,0685
1201,00;0,0684
1200,00;0,0683
1199,00;0,0682
1198,00;0,0682
1197,00;0,0681
1196,00;0,0680
1195,00;0,0679
1194,00;0,0678
1193,00;0,0678
1192,00;0,0677
1191,00;0,0677
1190,00;0,0677
1189,00;0,0676
1188,00;0,0676
1187,00;0,0676
1186,00;0,0676
1185,00;0,0676
1184,00;0,0677
1183,00;0,0677
1182,00;0,0678
1181,00;0,0678
1180,00;0,0678
1179,00;0,0677
1178,00;0,0677
1177,00;0,0677
1176,00;0,0677
1175,00;0,0677
1174,00;0,0678
1173,00;0,0678
1172,00;0,0678
1171,00;0,0679
1170,00;0,0680
1169,00;0,0681
1168,00;0,0682
1167,00;0,0683
1166,00;0,0683
1165,00;0,0684
1164,00;0,0684
1163,00;0,0684
1162,00;0,0684
1161,00;0,0685
1160,00;0,0686
1159,00;0,0687
1158,00;0,0688
1157,00;0,0688
1156,00;0,0689
1155,00;0,0689
1154,00;0,0689
1153,00;0,0689
1152,00;0,0690
1151,00;0,0691
1150,00;0,0692
1149,00;0,0693
1148,00;0,0693
1147,00;0,0694
1146,00;0,0695
1145,00;0,0695
1144,00;0,0696
1143,00;0,0696
1142,00;0,0697
1141,00;0,0697
1140,00;0,0698
1139,00;0,0698
1138,00;0,0699
1137,00;0,0700
1136,00;0,0702
1135,00;0,0703
1134,00;0,0705
1133,00;0,0706
1132,00;0,0706
1131,00;0,0707
1130,00;0,0707
1129,00;0,0708
1128,00;0,0708
1127,00;0,0709
1126,00;0,0709
1125,00;0,0709
1124,00;0,0710
1123,00;0,0712
1122,00;0,0713
1121,00;0,0714
1120,00;0,0716
1119,00;0,0716
1118,00;0,0717
1117,00;0,0717
1116,00;0,0718
1115,00;0,0718
1114,00;0,0719
1113,00;0,0721
1112,00;0,0722
1111,00;0,0724
1110,00;0,0725
1109,00;0,0727
1108,00;0,0728
1107,00;0,0728
1106,00;0,0728
1105,00;0,0728
1104,00;0,0728
1103,00;0,0728
1102,00;0,0728
1101,00;0,0729
1100,00;0,0729
1099,00;0,0730
1098,00;0,0731
1097,00;0,0732
1096,00;0,0733
1095,00;0,0734
1094,00;0,0734
1093,00;0,0735
1092,00;0,0735
1091,00;0,0736
1090,00;0,0736
1089,00;0,0736
1088,00;0,0736
1087,00;0,0736
1086,00;0,0736
1085,00;0,0736
1084,00;0,0737
1083,00;0,0737
1082,00;0,0738
1081,00;0,0738
1080,00;0,0738
1079,00;0,0738
1078,00;0,0738
1077,00;0,0738
1076,00;0,0738
1075,00;0,0739
1074,00;0,0739
1073,00;0,0739
1072,00;0,0738
1071,00;0,0738
1070,00;0,0739
1069,00;0,0739
1068,00;0,0739
1067,00;0,0740
1066,00;0,0740
1065,00;0,0740
1064,00;0,0740
1063,00;0,0740
1062,00;0,0740
1061,00;0,0740
1060,00;0,0741
1059,00;0,0741
1058,00;0,0741
1057,00;0,0741
1056,00;0,0742
1055,00;0,0742
1054,00;0,0743
1053,00;0,0742
1052,00;0,0742
1051,00;0,0742
1050,00;0,0742
1049,00;0,0743
1048,00;0,0744
1047,00;0,0745
1046,00;0,0746
1045,00;0,0747
1044,00;0,0748
1043,00;0,0749
1042,00;0,0749
1041,00;0,0749
1040,00;0,0749
1039,00;0,0749
1038,00;0,0750
1037,00;0,0751
1036,00;0,0752
1035,00;0,0753
1034,00;0,0753
1033,00;0,0754
1032,00;0,0754
1031,00;0,0754
1030,00;0,0754
1029,00;0,0754
1028,00;0,0755
1027,00;0,0757
1026,00;0,0758
1025,00;0,0760
1024,00;0,0762
1023,00;0,0763
1022,00;0,0764
1021,00;0,0766
1020,00;0,0767
1019,00;0,0769
1018,00;0,0770
1017,00;0,0771
1016,00;0,0772
1015,00;0,0773
1014,00;0,0774
1013,00;0,0775
1012,00;0,0776
1011,00;0,0777
1010,00;0,0778
1009,00;0,0779
1008,00;0,0780
1007,00;0,0782
1006,00;0,0782
1005,00;0,0782
1004,00;0,0782
1003,00;0,0782
1002,00;0,0781
1001,00;0,0782
1000,00;0,0782
999,00;0,0784
998,00;0,0785
997,00;0,0787
996,00;0,0788
995,00;0,0788
994,00;0,0788
993,00;0,0788
992,00;0,0788
991,00;0,0788
990,00;0,0788
989,00;0,0788
988,00;0,0787
987,00;0,0787
986,00;0,0787
985,00;0,0786
984,00;0,0786
983,00;0,0785
982,00;0,0784
981,00;0,0784
980,00;0,0783
979,00;0,0782
978,00;0,0782
977,00;0,0781
976,00;0,0781
975,00;0,0780
974,00;0,0780
973,00;0,0780
972,00;0,0780
971,00;0,0780
970,00;0,0780
969,00;0,0779
968,00;0,0779
967,00;0,0778
966,00;0,0777
965,00;0,0776
964,00;0,0775
963,00;0,0775
962,00;0,0775
961,00;0,0775
960,00;0,0776
959,00;0,0777
958,00;0,0777
957,00;0,0777
956,00;0,0777
955,00;0,0776
954,00;0,0776
953,00;0,0776
952,00;0,0776
951,00;0,0777
950,00;0,0777
949,00;0,0777
948,00;0,0778
947,00;0,0778
946,00;0,0778
945,00;0,0777
944,00;0,0777
943,00;0,0777
942,00;0,0778
941,00;0,0779
940,00;0,0780
939,00;0,0780
938,00;0,0779
937,00;0,0779
936,00;0,0780
935,00;0,0782
934,00;0,0783
933,00;0,0784
932,00;0,0785
931,00;0,0786
930,00;0,0787
929,00;0,0789
928,00;0,0790
927,00;0,0791
926,00;0,0792
925,00;0,0793
924,00;0,0794
923,00;0,0794
922,00;0,0794
921,00;0,0794
920,00;0,0795
919,00;0,0796
918,00;0,0797
917,00;0,0798
916,00;0,0799
915,00;0,0800
914,00;0,0801
913,00;0,0802
912,00;0,0803
911,00;0,0803
910,00;0,0804
909,00;0,0804
908,00;0,0805
907,00;0,0806
906,00;0,0807
905,00;0,0809
904,00;0,0810
903,00;0,0811
902,00;0,0810
901,00;0,0810
900,00;0,0810
899,00;0,0810
898,00;0,0811
897,00;0,0811
896,00;0,0810
895,00;0,0809
894,00;0,0808
893,00;0,0808
892,00;0,0809
891,00;0,0810
890,00;0,0810
889,00;0,0810
888,00;0,0810
887,00;0,0811
886,00;0,0813
885,00;0,0815
884,00;0,0817
883,00;0,0819
882,00;0,0820
881,00;0,0821
880,00;0,0823
879,00;0,0825
878,00;0,0826
877,00;0,0827
876,00;0,0827
875,00;0,0828
874,00;0,0828
873,00;0,0828
872,00;0,0828
871,00;0,0828
870,00;0,0827
869,00;0,0827
868,00;0,0827
867,00;0,0826
866,00;0,0825
865,00;0,0824
864,00;0,0823
863,00;0,0822
862,00;0,0821
861,00;0,0819
860,00;0,0817
859,00;0,0815
858,00;0,0815
857,00;0,0814
856,00;0,0814
855,00;0,0813
854,00;0,0812
853,00;0,0812
852,00;0,0812
851,00;0,0813
850,00;0,0815
849,00;0,0817
848,00;0,0819
847,00;0,0820
846,00;0,0821
845,00;0,0822
844,00;0,0821
843,00;0,0820
842,00;0,0818
841,00;0,0817
840,00;0,0816
839,00;0,0816
838,00;0,0816
837,00;0,0815
836,00;0,0814
835,00;0,0813
834,00;0,0812
833,00;0,0811
832,00;0,0811
831,00;0,0810
830,00;0,0810
829,00;0,0810
828,00;0,0810
827,00;0,0810
826,00;0,0810
825,00;0,0810
824,00;0,0810
823,00;0,0808
822,00;0,0807
821,00;0,0805
820,00;0,0804
819,00;0,0804
818,00;0,0804
817,00;0,0804
816,00;0,0804
815,00;0,0806
814,00;0,0807
813,00;0,0807
812,00;0,0805
811,00;0,0804
810,00;0,0803
809,00;0,0802
808,00;0,0802
807,00;0,0802
806,00;0,0802
805,00;0,0802
804,00;0,0801
803,00;0,0801
802,00;0,0801
801,00;0,0802
800,00;0,0803
799,00;0,0804
798,00;0,0804
797,00;0,0804
796,00;0,0803
795,00;0,0802
794,00;0,0802
793,00;0,0801
792,00;0,0801
791,00;0,0800
790,00;0,0800
789,00;0,0800
788,00;0,0801
787,00;0,0800
786,00;0,0800
785,00;0,0799
784,00;0,0798
783,00;0,0797
782,00;0,0796
781,00;0,0794
780,00;0,0792
779,00;0,0791
778,00;0,0790
777,00;0,0791
776,00;0,0791
775,00;0,0791
774,00;0,0790
773,00;0,0789
772,00;0,0788
771,00;0,0786
770,00;0,0785
769,00;0,0784
768,00;0,0784
767,00;0,0785
766,00;0,0785
765,00;0,0786
764,00;0,0785
763,00;0,0784
762,00;0,0781
761,00;0,0779
760,00;0,0778
759,00;0,0779
758,00;0,0780
757,00;0,0781
756,00;0,0781
755,00;0,0781
754,00;0,0780
753,00;0,0779
752,00;0,0778
751,00;0,0777
750,00;0,0777
749,00;0,0777
748,00;0,0777
747,00;0,0778
746,00;0,0778
745,00;0,0780
744,00;0,0781
743,00;0,0781
742,00;0,0781
741,00;0,0781
740,00;0,0781
739,00;0,0783
738,00;0,0784
737,00;0,0784
736,00;0,0784
735,00;0,0784
734,00;0,0785
733,00;0,0787
732,00;0,0788
731,00;0,0789
730,00;0,0789
729,00;0,0791
728,00;0,0792
727,00;0,0795
726,00;0,0797
725,00;0,0798
724,00;0,0798
723,00;0,0797
722,00;0,0797
721,00;0,0798
720,00;0,0799
719,00;0,0801
718,00;0,0802
717,00;0,0803
716,00;0,0804
715,00;0,0804
714,00;0,0804
713,00;0,0804
712,00;0,0805
711,00;0,0806
710,00;0,0807
709,00;0,0808
708,00;0,0810
707,00;0,0811
706,00;0,0812
705,00;0,0814
704,00;0,0814
703,00;0,0814
702,00;0,0813
701,00;0,0812
700,00;0,0811
699,00;0,0811
698,00;0,0812
697,00;0,0813
696,00;0,0814
695,00;0,0815
694,00;0,0815
693,00;0,0816
692,00;0,0818
691,00;0,0819
690,00;0,0819
689,00;0,0819
688,00;0,0818
687,00;0,0818
686,00;0,0818
685,00;0,0819
684,00;0,0820
683,00;0,0822
682,00;0,0822
681,00;0,0822
680,00;0,0822
679,00;0,0823
678,00;0,0826
677,00;0,0829
676,00;0,0833
675,00;0,0836
674,00;0,0839
673,00;0,0841
672,00;0,0843
671,00;0,0841
670,00;0,0837
669,00;0,0829
668,00;0,0823
667,00;0,0823
666,00;0,0829
665,00;0,0837
664,00;0,0843
663,00;0,0846
662,00;0,0847
661,00;0,0846
660,00;0,0846
659,00;0,0845
658,00;0,0846
657,00;0,0849
656,00;0,0852
655,00;0,0854
654,00;0,0857
653,00;0,0861
652,00;0,0867
651,00;0,0873
650,00;0,0878
649,00;0,0882
648,00;0,0886
647,00;0,0890
646,00;0,0894
645,00;0,0898
644,00;0,0902
643,00;0,0904
642,00;0,0906
641,00;0,0907
640,00;0,0910
639,00;0,0915
638,00;0,0921
637,00;0,0926
636,00;0,0929
635,00;0,0931
634,00;0,0933
633,00;0,0936
632,00;0,0939
631,00;0,0943
630,00;0,0946
629,00;0,0949
628,00;0,0953
627,00;0,0956
626,00;0,0959
625,00;0,0961
624,00;0,0962
623,00;0,0964
622,00;0,0966
621,00;0,0969
620,00;0,0974
619,00;0,0978
618,00;0,0983
617,00;0,0987
616,00;0,0991
615,00;0,0994
614,00;0,0996
613,00;0,0999
612,00;0,1001
611,00;0,1004
610,00;0,1007
609,00;0,1010
608,00;0,1015
607,00;0,1020
606,00;0,1024
605,00;0,1027
604,00;0,1029
603,00;0,1030
602,00;0,1031
601,00;0,1032
600,00;0,1036
599,00;0,1042
598,00;0,1048
597,00;0,1053
596,00;0,1056
595,00;0,1059
594,00;0,1063
593,00;0,1066
592,00;0,1069
591,00;0,1071
590,00;0,1075
589,00;0,1081
588,00;0,1087
587,00;0,1092
586,00;0,1096
585,00;0,1098
584,00;0,1100
583,00;0,1103
582,00;0,1107
581,00;0,1113
580,00;0,1120
579,00;0,1125
578,00;0,1126
577,00;0,1128
576,00;0,1131
575,00;0,1137
574,00;0,1143
573,00;0,1149
572,00;0,1157
571,00;0,1164
570,00;0,1169
569,00;0,1173
568,00;0,1177
567,00;0,1182
566,00;0,1187
565,00;0,1192
564,00;0,1196
563,00;0,1199
562,00;0,1203
561,00;0,1207
560,00;0,1212
559,00;0,1216
558,00;0,1218
557,00;0,1220
556,00;0,1222
555,00;0,1225
554,00;0,1228
553,00;0,1230
552,00;0,1230
551,00;0,1230
550,00;0,1232
549,00;0,1236
548,00;0,1241
547,00;0,1245
546,00;0,1249
545,00;0,1252
544,00;0,1254
543,00;0,1256
542,00;0,1257
541,00;0,1258
540,00;0,1259
539,00;0,1257
538,00;0,1254
537,00;0,1253
536,00;0,1254
535,00;0,1256
534,00;0,1259
533,00;0,1263
532,00;0,1268
531,00;0,1271
530,00;0,1273
529,00;0,1274
528,00;0,1276
527,00;0,1278
526,00;0,1279
525,00;0,1281
524,00;0,1284
523,00;0,1288
522,00;0,1291
521,00;0,1294
520,00;0,1298
519,00;0,1300
518,00;0,1300
517,00;0,1298
516,00;0,1296
515,00;0,1295
514,00;0,1295
513,00;0,1296
512,00;0,1297
511,00;0,1297
510,00;0,1298
509,00;0,1298
508,00;0,1298
507,00;0,1296
506,00;0,1292
505,00;0,1287
504,00;0,1283
503,00;0,1280
502,00;0,1281
501,00;0,1284
500,00;0,1285
499,00;0,1285
498,00;0,1285
497,00;0,1286
496,00;0,1286
495,00;0,1285
494,00;0,1285
493,00;0,1286
492,00;0,1290
491,00;0,1293
490,00;0,1296
489,00;0,1298
488,00;0,1301
487,00;0,1305
486,00;0,1311
485,00;0,1321
484,00;0,1332
483,00;0,1340
482,00;0,1344
481,00;0,1347
480,00;0,1350
479,00;0,1351
478,00;0,1352
477,00;0,1355
476,00;0,1360
475,00;0,1364
474,00;0,1369
473,00;0,1376
472,00;0,1386
471,00;0,1393
470,00;0,1396
469,00;0,1399
468,00;0,1405
467,00;0,1411
466,00;0,1416
465,00;0,1418
464,00;0,1418
463,00;0,1417
462,00;0,1417
461,00;0,1421
460,00;0,1429
459,00;0,1439
458,00;0,1448
457,00;0,1454
456,00;0,1458
455,00;0,1459
454,00;0,1459
453,00;0,1462
452,00;0,1469
451,00;0,1477
450,00;0,1484
449,00;0,1493
448,00;0,1502
447,00;0,1511
446,00;0,1517
445,00;0,1524
444,00;0,1532
443,00;0,1538
442,00;0,1541
441,00;0,1540
440,00;0,1538
439,00;0,1533
438,00;0,1529
437,00;0,1535
436,00;0,1551
435,00;0,1568
434,00;0,1574
433,00;0,1568
432,00;0,1555
431,00;0,1542
430,00;0,1532
429,00;0,1527
428,00;0,1527
427,00;0,1533
426,00;0,1546
425,00;0,1562
424,00;0,1577
423,00;0,1584
422,00;0,1584
421,00;0,1578
420,00;0,1568
419,00;0,1552
418,00;0,1532
417,00;0,1515
416,00;0,1503
415,00;0,1504
414,00;0,1524
413,00;0,1560
412,00;0,1592
411,00;0,1600
410,00;0,1584
409,00;0,1565
408,00;0,1559
407,00;0,1565
406,00;0,1574
405,00;0,1580
404,00;0,1584
403,00;0,1581
402,00;0,1572
401,00;0,1561
400,00;0,1554
