Создан как новый массив данных;Образец 010 полученный BalashovM Дата пятница, апреля 21 2023
cm-1;A
4000,00;0,0493
3999,00;0,0493
3998,00;0,0493
3997,00;0,0493
3996,00;0,0493
3995,00;0,0493
3994,00;0,0493
3993,00;0,0493
3992,00;0,0492
3991,00;0,0492
3990,00;0,0492
3989,00;0,0491
3988,00;0,0491
3987,00;0,0491
3986,00;0,0490
3985,00;0,0490
3984,00;0,0490
3983,00;0,0490
3982,00;0,0490
3981,00;0,0491
3980,00;0,0491
3979,00;0,0491
3978,00;0,0491
3977,00;0,0491
3976,00;0,0491
3975,00;0,0491
3974,00;0,0491
3973,00;0,0491
3972,00;0,0491
3971,00;0,0491
3970,00;0,0491
3969,00;0,0490
3968,00;0,0490
3967,00;0,0490
3966,00;0,0490
3965,00;0,0489
3964,00;0,0489
3963,00;0,0489
3962,00;0,0489
3961,00;0,0489
3960,00;0,0489
3959,00;0,0489
3958,00;0,0489
3957,00;0,0489
3956,00;0,0489
3955,00;0,0489
3954,00;0,0489
3953,00;0,0489
3952,00;0,0489
3951,00;0,0489
3950,00;0,0488
3949,00;0,0488
3948,00;0,0487
3947,00;0,0487
3946,00;0,0487
3945,00;0,0487
3944,00;0,0487
3943,00;0,0486
3942,00;0,0486
3941,00;0,0486
3940,00;0,0487
3939,00;0,0487
3938,00;0,0487
3937,00;0,0487
3936,00;0,0487
3935,00;0,0486
3934,00;0,0486
3933,00;0,0486
3932,00;0,0486
3931,00;0,0486
3930,00;0,0485
3929,00;0,0485
3928,00;0,0485
3927,00;0,0485
3926,00;0,0484
3925,00;0,0484
3924,00;0,0485
3923,00;0,0485
3922,00;0,0485
3921,00;0,0484
3920,00;0,0484
3919,00;0,0484
3918,00;0,0483
3917,00;0,0483
3916,00;0,0483
3915,00;0,0483
3914,00;0,0483
3913,00;0,0483
3912,00;0,0483
3911,00;0,0483
3910,00;0,0483
3909,00;0,0483
3908,00;0,0482
3907,00;0,0481
3906,00;0,0481
3905,00;0,0480
3904,00;0,0480
3903,00;0,0480
3902,00;0,0479
3901,00;0,0478
3900,00;0,0478
3899,00;0,0478
3898,00;0,0478
3897,00;0,0479
3896,00;0,0479
3895,00;0,0480
3894,00;0,0480
3893,00;0,0480
3892,00;0,0480
3891,00;0,0480
3890,00;0,0480
3889,00;0,0479
3888,00;0,0478
3887,00;0,0478
3886,00;0,0478
3885,00;0,0477
3884,00;0,0477
3883,00;0,0477
3882,00;0,0477
3881,00;0,0477
3880,00;0,0477
3879,00;0,0478
3878,00;0,0478
3877,00;0,0478
3876,00;0,0478
3875,00;0,0477
3874,00;0,0477
3873,00;0,0477
3872,00;0,0476
3871,00;0,0476
3870,00;0,0475
3869,00;0,0475
3868,00;0,0474
3867,00;0,0474
3866,00;0,0474
3865,00;0,0474
3864,00;0,0475
3863,00;0,0475
3862,00;0,0475
3861,00;0,0475
3860,00;0,0475
3859,00;0,0475
3858,00;0,0474
3857,00;0,0472
3856,00;0,0470
3855,00;0,0468
3854,00;0,0467
3853,00;0,0467
3852,00;0,0467
3851,00;0,0467
3850,00;0,0468
3849,00;0,0469
3848,00;0,0471
3847,00;0,0473
3846,00;0,0474
3845,00;0,0475
3844,00;0,0474
3843,00;0,0473
3842,00;0,0472
3841,00;0,0471
3840,00;0,0470
3839,00;0,0470
3838,00;0,0470
3837,00;0,0470
3836,00;0,0470
3835,00;0,0470
3834,00;0,0470
3833,00;0,0470
3832,00;0,0471
3831,00;0,0472
3830,00;0,0472
3829,00;0,0473
3828,00;0,0473
3827,00;0,0473
3826,00;0,0472
3825,00;0,0471
3824,00;0,0471
3823,00;0,0470
3822,00;0,0469
3821,00;0,0469
3820,00;0,0468
3819,00;0,0467
3818,00;0,0467
3817,00;0,0467
3816,00;0,0467
3815,00;0,0467
3814,00;0,0468
3813,00;0,0469
3812,00;0,0469
3811,00;0,0469
3810,00;0,0470
3809,00;0,0470
3808,00;0,0470
3807,00;0,0470
3806,00;0,0469
3805,00;0,0468
3804,00;0,0467
3803,00;0,0466
3802,00;0,0466
3801,00;0,0466
3800,00;0,0466
3799,00;0,0466
3798,00;0,0466
3797,00;0,0466
3796,00;0,0466
3795,00;0,0467
3794,00;0,0468
3793,00;0,0468
3792,00;0,0469
3791,00;0,0469
3790,00;0,0470
3789,00;0,0470
3788,00;0,0470
3787,00;0,0470
3786,00;0,0470
3785,00;0,0469
3784,00;0,0469
3783,00;0,0468
3782,00;0,0467
3781,00;0,0466
3780,00;0,0466
3779,00;0,0465
3778,00;0,0465
3777,00;0,0465
3776,00;0,0465
3775,00;0,0465
3774,00;0,0465
3773,00;0,0465
3772,00;0,0466
3771,00;0,0466
3770,00;0,0465
3769,00;0,0465
3768,00;0,0464
3767,00;0,0464
3766,00;0,0464
3765,00;0,0463
3764,00;0,0463
3763,00;0,0463
3762,00;0,0462
3761,00;0,0462
3760,00;0,0462
3759,00;0,0462
3758,00;0,0462
3757,00;0,0462
3756,00;0,0461
3755,00;0,0460
3754,00;0,0459
3753,00;0,0458
3752,00;0,0458
3751,00;0,0458
3750,00;0,0458
3749,00;0,0457
3748,00;0,0455
3747,00;0,0453
3746,00;0,0452
3745,00;0,0452
3744,00;0,0452
3743,00;0,0452
3742,00;0,0452
3741,00;0,0453
3740,00;0,0453
3739,00;0,0453
3738,00;0,0454
3737,00;0,0454
3736,00;0,0455
3735,00;0,0455
3734,00;0,0455
3733,00;0,0456
3732,00;0,0456
3731,00;0,0457
3730,00;0,0457
3729,00;0,0457
3728,00;0,0458
3727,00;0,0458
3726,00;0,0459
3725,00;0,0459
3724,00;0,0458
3723,00;0,0458
3722,00;0,0458
3721,00;0,0458
3720,00;0,0458
3719,00;0,0457
3718,00;0,0457
3717,00;0,0456
3716,00;0,0455
3715,00;0,0455
3714,00;0,0454
3713,00;0,0453
3712,00;0,0453
3711,00;0,0453
3710,00;0,0453
3709,00;0,0454
3708,00;0,0455
3707,00;0,0455
3706,00;0,0455
3705,00;0,0455
3704,00;0,0455
3703,00;0,0455
3702,00;0,0455
3701,00;0,0455
3700,00;0,0455
3699,00;0,0455
3698,00;0,0455
3697,00;0,0455
3696,00;0,0455
3695,00;0,0455
3694,00;0,0456
3693,00;0,0455
3692,00;0,0454
3691,00;0,0454
3690,00;0,0454
3689,00;0,0453
3688,00;0,0453
3687,00;0,0452
3686,00;0,0452
3685,00;0,0452
3684,00;0,0452
3683,00;0,0453
3682,00;0,0454
3681,00;0,0454
3680,00;0,0453
3679,00;0,0451
3678,00;0,0449
3677,00;0,0448
3676,00;0,0447
3675,00;0,0447
3674,00;0,0446
3673,00;0,0446
3672,00;0,0446
3671,00;0,0446
3670,00;0,0447
3669,00;0,0448
3668,00;0,0449
3667,00;0,0450
3666,00;0,0450
3665,00;0,0451
3664,00;0,0452
3663,00;0,0453
3662,00;0,0454
3661,00;0,0454
3660,00;0,0453
3659,00;0,0452
3658,00;0,0451
3657,00;0,0451
3656,00;0,0450
3655,00;0,0449
3654,00;0,0449
3653,00;0,0448
3652,00;0,0447
3651,00;0,0447
3650,00;0,0447
3649,00;0,0447
3648,00;0,0447
3647,00;0,0448
3646,00;0,0448
3645,00;0,0449
3644,00;0,0449
3643,00;0,0450
3642,00;0,0451
3641,00;0,0451
3640,00;0,0451
3639,00;0,0451
3638,00;0,0451
3637,00;0,0451
3636,00;0,0450
3635,00;0,0450
3634,00;0,0450
3633,00;0,0449
3632,00;0,0448
3631,00;0,0447
3630,00;0,0447
3629,00;0,0447
3628,00;0,0448
3627,00;0,0448
3626,00;0,0448
3625,00;0,0449
3624,00;0,0449
3623,00;0,0450
3622,00;0,0450
3621,00;0,0450
3620,00;0,0450
3619,00;0,0450
3618,00;0,0450
3617,00;0,0449
3616,00;0,0449
3615,00;0,0449
3614,00;0,0449
3613,00;0,0449
3612,00;0,0449
3611,00;0,0450
3610,00;0,0450
3609,00;0,0451
3608,00;0,0452
3607,00;0,0452
3606,00;0,0452
3605,00;0,0453
3604,00;0,0453
3603,00;0,0452
3602,00;0,0452
3601,00;0,0452
3600,00;0,0452
3599,00;0,0451
3598,00;0,0451
3597,00;0,0451
3596,00;0,0450
3595,00;0,0450
3594,00;0,0450
3593,00;0,0450
3592,00;0,0450
3591,00;0,0450
3590,00;0,0450
3589,00;0,0450
3588,00;0,0450
3587,00;0,0450
3586,00;0,0450
3585,00;0,0451
3584,00;0,0451
3583,00;0,0451
3582,00;0,0451
3581,00;0,0451
3580,00;0,0451
3579,00;0,0450
3578,00;0,0450
3577,00;0,0450
3576,00;0,0450
3575,00;0,0450
3574,00;0,0450
3573,00;0,0450
3572,00;0,0451
3571,00;0,0451
3570,00;0,0451
3569,00;0,0451
3568,00;0,0451
3567,00;0,0452
3566,00;0,0452
3565,00;0,0452
3564,00;0,0452
3563,00;0,0452
3562,00;0,0452
3561,00;0,0452
3560,00;0,0452
3559,00;0,0452
3558,00;0,0452
3557,00;0,0452
3556,00;0,0451
3555,00;0,0451
3554,00;0,0451
3553,00;0,0452
3552,00;0,0452
3551,00;0,0453
3550,00;0,0453
3549,00;0,0454
3548,00;0,0454
3547,00;0,0454
3546,00;0,0454
3545,00;0,0454
3544,00;0,0453
3543,00;0,0453
3542,00;0,0453
3541,00;0,0452
3540,00;0,0452
3539,00;0,0452
3538,00;0,0452
3537,00;0,0453
3536,00;0,0453
3535,00;0,0453
3534,00;0,0453
3533,00;0,0453
3532,00;0,0453
3531,00;0,0453
3530,00;0,0454
3529,00;0,0455
3528,00;0,0455
3527,00;0,0455
3526,00;0,0455
3525,00;0,0455
3524,00;0,0455
3523,00;0,0455
3522,00;0,0454
3521,00;0,0454
3520,00;0,0454
3519,00;0,0453
3518,00;0,0453
3517,00;0,0452
3516,00;0,0452
3515,00;0,0452
3514,00;0,0453
3513,00;0,0453
3512,00;0,0453
3511,00;0,0453
3510,00;0,0453
3509,00;0,0454
3508,00;0,0454
3507,00;0,0454
3506,00;0,0454
3505,00;0,0454
3504,00;0,0454
3503,00;0,0454
3502,00;0,0454
3501,00;0,0454
3500,00;0,0454
3499,00;0,0453
3498,00;0,0453
3497,00;0,0452
3496,00;0,0452
3495,00;0,0452
3494,00;0,0452
3493,00;0,0453
3492,00;0,0453
3491,00;0,0453
3490,00;0,0452
3489,00;0,0452
3488,00;0,0453
3487,00;0,0453
3486,00;0,0453
3485,00;0,0454
3484,00;0,0454
3483,00;0,0454
3482,00;0,0454
3481,00;0,0454
3480,00;0,0453
3479,00;0,0453
3478,00;0,0452
3477,00;0,0452
3476,00;0,0451
3475,00;0,0451
3474,00;0,0451
3473,00;0,0452
3472,00;0,0451
3471,00;0,0451
3470,00;0,0451
3469,00;0,0451
3468,00;0,0452
3467,00;0,0452
3466,00;0,0453
3465,00;0,0453
3464,00;0,0453
3463,00;0,0452
3462,00;0,0452
3461,00;0,0452
3460,00;0,0452
3459,00;0,0452
3458,00;0,0451
3457,00;0,0451
3456,00;0,0452
3455,00;0,0452
3454,00;0,0452
3453,00;0,0452
3452,00;0,0452
3451,00;0,0452
3450,00;0,0452
3449,00;0,0452
3448,00;0,0452
3447,00;0,0453
3446,00;0,0454
3445,00;0,0454
3444,00;0,0454
3443,00;0,0454
3442,00;0,0454
3441,00;0,0454
3440,00;0,0454
3439,00;0,0454
3438,00;0,0454
3437,00;0,0454
3436,00;0,0454
3435,00;0,0454
3434,00;0,0454
3433,00;0,0454
3432,00;0,0454
3431,00;0,0454
3430,00;0,0455
3429,00;0,0456
3428,00;0,0456
3427,00;0,0457
3426,00;0,0457
3425,00;0,0457
3424,00;0,0457
3423,00;0,0457
3422,00;0,0458
3421,00;0,0458
3420,00;0,0458
3419,00;0,0459
3418,00;0,0459
3417,00;0,0458
3416,00;0,0458
3415,00;0,0457
3414,00;0,0456
3413,00;0,0456
3412,00;0,0456
3411,00;0,0456
3410,00;0,0456
3409,00;0,0456
3408,00;0,0455
3407,00;0,0455
3406,00;0,0455
3405,00;0,0454
3404,00;0,0453
3403,00;0,0452
3402,00;0,0452
3401,00;0,0452
3400,00;0,0452
3399,00;0,0452
3398,00;0,0452
3397,00;0,0451
3396,00;0,0451
3395,00;0,0450
3394,00;0,0450
3393,00;0,0449
3392,00;0,0449
3391,00;0,0449
3390,00;0,0449
3389,00;0,0449
3388,00;0,0449
3387,00;0,0448
3386,00;0,0448
3385,00;0,0448
3384,00;0,0448
3383,00;0,0448
3382,00;0,0447
3381,00;0,0447
3380,00;0,0446
3379,00;0,0446
3378,00;0,0446
3377,00;0,0446
3376,00;0,0446
3375,00;0,0446
3374,00;0,0446
3373,00;0,0445
3372,00;0,0445
3371,00;0,0444
3370,00;0,0443
3369,00;0,0443
3368,00;0,0443
3367,00;0,0443
3366,00;0,0443
3365,00;0,0443
3364,00;0,0443
3363,00;0,0443
3362,00;0,0443
3361,00;0,0442
3360,00;0,0442
3359,00;0,0442
3358,00;0,0442
3357,00;0,0443
3356,00;0,0442
3355,00;0,0442
3354,00;0,0441
3353,00;0,0440
3352,00;0,0439
3351,00;0,0439
3350,00;0,0439
3349,00;0,0439
3348,00;0,0439
3347,00;0,0439
3346,00;0,0439
3345,00;0,0439
3344,00;0,0439
3343,00;0,0439
3342,00;0,0439
3341,00;0,0438
3340,00;0,0438
3339,00;0,0438
3338,00;0,0438
3337,00;0,0437
3336,00;0,0437
3335,00;0,0437
3334,00;0,0437
3333,00;0,0436
3332,00;0,0436
3331,00;0,0436
3330,00;0,0436
3329,00;0,0435
3328,00;0,0435
3327,00;0,0435
3326,00;0,0435
3325,00;0,0435
3324,00;0,0435
3323,00;0,0435
3322,00;0,0435
3321,00;0,0435
3320,00;0,0435
3319,00;0,0435
3318,00;0,0435
3317,00;0,0435
3316,00;0,0434
3315,00;0,0434
3314,00;0,0434
3313,00;0,0433
3312,00;0,0433
3311,00;0,0433
3310,00;0,0433
3309,00;0,0433
3308,00;0,0433
3307,00;0,0432
3306,00;0,0432
3305,00;0,0432
3304,00;0,0431
3303,00;0,0431
3302,00;0,0431
3301,00;0,0431
3300,00;0,0431
3299,00;0,0430
3298,00;0,0430
3297,00;0,0430
3296,00;0,0429
3295,00;0,0429
3294,00;0,0429
3293,00;0,0429
3292,00;0,0429
3291,00;0,0429
3290,00;0,0430
3289,00;0,0430
3288,00;0,0430
3287,00;0,0429
3286,00;0,0429
3285,00;0,0428
3284,00;0,0428
3283,00;0,0427
3282,00;0,0427
3281,00;0,0427
3280,00;0,0427
3279,00;0,0427
3278,00;0,0427
3277,00;0,0427
3276,00;0,0427
3275,00;0,0426
3274,00;0,0426
3273,00;0,0426
3272,00;0,0425
3271,00;0,0425
3270,00;0,0424
3269,00;0,0424
3268,00;0,0424
3267,00;0,0424
3266,00;0,0424
3265,00;0,0424
3264,00;0,0424
3263,00;0,0424
3262,00;0,0424
3261,00;0,0425
3260,00;0,0425
3259,00;0,0424
3258,00;0,0424
3257,00;0,0424
3256,00;0,0424
3255,00;0,0423
3254,00;0,0423
3253,00;0,0423
3252,00;0,0423
3251,00;0,0422
3250,00;0,0422
3249,00;0,0422
3248,00;0,0422
3247,00;0,0422
3246,00;0,0422
3245,00;0,0421
3244,00;0,0421
3243,00;0,0421
3242,00;0,0421
3241,00;0,0421
3240,00;0,0421
3239,00;0,0420
3238,00;0,0420
3237,00;0,0420
3236,00;0,0419
3235,00;0,0419
3234,00;0,0419
3233,00;0,0420
3232,00;0,0420
3231,00;0,0419
3230,00;0,0419
3229,00;0,0419
3228,00;0,0418
3227,00;0,0418
3226,00;0,0418
3225,00;0,0418
3224,00;0,0418
3223,00;0,0418
3222,00;0,0417
3221,00;0,0417
3220,00;0,0417
3219,00;0,0417
3218,00;0,0417
3217,00;0,0417
3216,00;0,0417
3215,00;0,0417
3214,00;0,0417
3213,00;0,0417
3212,00;0,0416
3211,00;0,0416
3210,00;0,0416
3209,00;0,0416
3208,00;0,0416
3207,00;0,0416
3206,00;0,0416
3205,00;0,0416
3204,00;0,0416
3203,00;0,0416
3202,00;0,0416
3201,00;0,0416
3200,00;0,0416
3199,00;0,0416
3198,00;0,0415
3197,00;0,0415
3196,00;0,0414
3195,00;0,0414
3194,00;0,0414
3193,00;0,0414
3192,00;0,0414
3191,00;0,0414
3190,00;0,0414
3189,00;0,0413
3188,00;0,0413
3187,00;0,0413
3186,00;0,0413
3185,00;0,0413
3184,00;0,0413
3183,00;0,0413
3182,00;0,0413
3181,00;0,0413
3180,00;0,0412
3179,00;0,0412
3178,00;0,0412
3177,00;0,0411
3176,00;0,0411
3175,00;0,0411
3174,00;0,0411
3173,00;0,0411
3172,00;0,0411
3171,00;0,0411
3170,00;0,0410
3169,00;0,0410
3168,00;0,0410
3167,00;0,0410
3166,00;0,0410
3165,00;0,0409
3164,00;0,0409
3163,00;0,0409
3162,00;0,0409
3161,00;0,0409
3160,00;0,0409
3159,00;0,0408
3158,00;0,0408
3157,00;0,0408
3156,00;0,0407
3155,00;0,0407
3154,00;0,0406
3153,00;0,0406
3152,00;0,0405
3151,00;0,0406
3150,00;0,0406
3149,00;0,0406
3148,00;0,0406
3147,00;0,0405
3146,00;0,0405
3145,00;0,0405
3144,00;0,0405
3143,00;0,0405
3142,00;0,0405
3141,00;0,0404
3140,00;0,0404
3139,00;0,0403
3138,00;0,0403
3137,00;0,0403
3136,00;0,0403
3135,00;0,0403
3134,00;0,0402
3133,00;0,0402
3132,00;0,0401
3131,00;0,0401
3130,00;0,0401
3129,00;0,0401
3128,00;0,0401
3127,00;0,0401
3126,00;0,0401
3125,00;0,0401
3124,00;0,0401
3123,00;0,0400
3122,00;0,0400
3121,00;0,0399
3120,00;0,0399
3119,00;0,0399
3118,00;0,0399
3117,00;0,0399
3116,00;0,0399
3115,00;0,0399
3114,00;0,0399
3113,00;0,0399
3112,00;0,0399
3111,00;0,0399
3110,00;0,0399
3109,00;0,0399
3108,00;0,0399
3107,00;0,0399
3106,00;0,0399
3105,00;0,0398
3104,00;0,0398
3103,00;0,0398
3102,00;0,0398
3101,00;0,0398
3100,00;0,0398
3099,00;0,0398
3098,00;0,0398
3097,00;0,0398
3096,00;0,0398
3095,00;0,0398
3094,00;0,0398
3093,00;0,0398
3092,00;0,0398
3091,00;0,0398
3090,00;0,0398
3089,00;0,0398
3088,00;0,0398
3087,00;0,0398
3086,00;0,0398
3085,00;0,0398
3084,00;0,0398
3083,00;0,0398
3082,00;0,0398
3081,00;0,0398
3080,00;0,0398
3079,00;0,0398
3078,00;0,0399
3077,00;0,0399
3076,00;0,0400
3075,00;0,0400
3074,00;0,0400
3073,00;0,0401
3072,00;0,0401
3071,00;0,0402
3070,00;0,0402
3069,00;0,0402
3068,00;0,0402
3067,00;0,0403
3066,00;0,0403
3065,00;0,0404
3064,00;0,0404
3063,00;0,0405
3062,00;0,0405
3061,00;0,0405
3060,00;0,0405
3059,00;0,0405
3058,00;0,0405
3057,00;0,0404
3056,00;0,0405
3055,00;0,0405
3054,00;0,0405
3053,00;0,0405
3052,00;0,0405
3051,00;0,0405
3050,00;0,0405
3049,00;0,0405
3048,00;0,0405
3047,00;0,0405
3046,00;0,0406
3045,00;0,0406
3044,00;0,0407
3043,00;0,0408
3042,00;0,0408
3041,00;0,0409
3040,00;0,0410
3039,00;0,0411
3038,00;0,0412
3037,00;0,0413
3036,00;0,0413
3035,00;0,0414
3034,00;0,0415
3033,00;0,0417
3032,00;0,0418
3031,00;0,0419
3030,00;0,0421
3029,00;0,0422
3028,00;0,0423
3027,00;0,0424
3026,00;0,0425
3025,00;0,0427
3024,00;0,0429
3023,00;0,0431
3022,00;0,0433
3021,00;0,0434
3020,00;0,0436
3019,00;0,0438
3018,00;0,0440
3017,00;0,0443
3016,00;0,0446
3015,00;0,0448
3014,00;0,0451
3013,00;0,0454
3012,00;0,0456
3011,00;0,0458
3010,00;0,0461
3009,00;0,0463
3008,00;0,0465
3007,00;0,0466
3006,00;0,0467
3005,00;0,0467
3004,00;0,0467
3003,00;0,0466
3002,00;0,0465
3001,00;0,0464
3000,00;0,0463
2999,00;0,0461
2998,00;0,0459
2997,00;0,0458
2996,00;0,0456
2995,00;0,0455
2994,00;0,0455
2993,00;0,0454
2992,00;0,0455
2991,00;0,0456
2990,00;0,0457
2989,00;0,0459
2988,00;0,0462
2987,00;0,0464
2986,00;0,0467
2985,00;0,0471
2984,00;0,0475
2983,00;0,0480
2982,00;0,0486
2981,00;0,0492
2980,00;0,0500
2979,00;0,0509
2978,00;0,0519
2977,00;0,0531
2976,00;0,0544
2975,00;0,0560
2974,00;0,0577
2973,00;0,0596
2972,00;0,0617
2971,00;0,0642
2970,00;0,0669
2969,00;0,0698
2968,00;0,0730
2967,00;0,0764
2966,00;0,0800
2965,00;0,0838
2964,00;0,0876
2963,00;0,0915
2962,00;0,0954
2961,00;0,0991
2960,00;0,1027
2959,00;0,1061
2958,00;0,1092
2957,00;0,1119
2956,00;0,1143
2955,00;0,1162
2954,00;0,1177
2953,00;0,1187
2952,00;0,1195
2951,00;0,1201
2950,00;0,1207
2949,00;0,1216
2948,00;0,1228
2947,00;0,1246
2946,00;0,1271
2945,00;0,1302
2944,00;0,1340
2943,00;0,1385
2942,00;0,1437
2941,00;0,1496
2940,00;0,1562
2939,00;0,1634
2938,00;0,1713
2937,00;0,1797
2936,00;0,1887
2935,00;0,1981
2934,00;0,2080
2933,00;0,2182
2932,00;0,2288
2931,00;0,2394
2930,00;0,2502
2929,00;0,2608
2928,00;0,2710
2927,00;0,2809
2926,00;0,2900
2925,00;0,2981
2924,00;0,3048
2923,00;0,3099
2922,00;0,3131
2921,00;0,3142
2920,00;0,3132
2919,00;0,3101
2918,00;0,3052
2917,00;0,2987
2916,00;0,2911
2915,00;0,2828
2914,00;0,2741
2913,00;0,2653
2912,00;0,2567
2911,00;0,2485
2910,00;0,2407
2909,00;0,2335
2908,00;0,2268
2907,00;0,2206
2906,00;0,2149
2905,00;0,2095
2904,00;0,2045
2903,00;0,1999
2902,00;0,1955
2901,00;0,1913
2900,00;0,1873
2899,00;0,1835
2898,00;0,1798
2897,00;0,1762
2896,00;0,1726
2895,00;0,1691
2894,00;0,1655
2893,00;0,1620
2892,00;0,1585
2891,00;0,1550
2890,00;0,1516
2889,00;0,1483
2888,00;0,1450
2887,00;0,1418
2886,00;0,1387
2885,00;0,1358
2884,00;0,1331
2883,00;0,1307
2882,00;0,1286
2881,00;0,1269
2880,00;0,1257
2879,00;0,1250
2878,00;0,1250
2877,00;0,1255
2876,00;0,1266
2875,00;0,1281
2874,00;0,1299
2873,00;0,1317
2872,00;0,1332
2871,00;0,1345
2870,00;0,1355
2869,00;0,1364
2868,00;0,1375
2867,00;0,1392
2866,00;0,1418
2865,00;0,1454
2864,00;0,1501
2863,00;0,1561
2862,00;0,1634
2861,00;0,1718
2860,00;0,1813
2859,00;0,1915
2858,00;0,2021
2857,00;0,2127
2856,00;0,2228
2855,00;0,2317
2854,00;0,2389
2853,00;0,2438
2852,00;0,2460
2851,00;0,2452
2850,00;0,2416
2849,00;0,2353
2848,00;0,2268
2847,00;0,2168
2846,00;0,2058
2845,00;0,1944
2844,00;0,1832
2843,00;0,1725
2842,00;0,1626
2841,00;0,1536
2840,00;0,1455
2839,00;0,1382
2838,00;0,1318
2837,00;0,1261
2836,00;0,1210
2835,00;0,1165
2834,00;0,1124
2833,00;0,1087
2832,00;0,1053
2831,00;0,1022
2830,00;0,0994
2829,00;0,0967
2828,00;0,0943
2827,00;0,0921
2826,00;0,0901
2825,00;0,0882
2824,00;0,0865
2823,00;0,0848
2822,00;0,0833
2821,00;0,0820
2820,00;0,0807
2819,00;0,0795
2818,00;0,0784
2817,00;0,0774
2816,00;0,0764
2815,00;0,0755
2814,00;0,0746
2813,00;0,0738
2812,00;0,0730
2811,00;0,0723
2810,00;0,0716
2809,00;0,0710
2808,00;0,0704
2807,00;0,0698
2806,00;0,0693
2805,00;0,0687
2804,00;0,0682
2803,00;0,0677
2802,00;0,0672
2801,00;0,0667
2800,00;0,0663
2799,00;0,0658
2798,00;0,0654
2797,00;0,0650
2796,00;0,0646
2795,00;0,0642
2794,00;0,0639
2793,00;0,0635
2792,00;0,0631
2791,00;0,0627
2790,00;0,0623
2789,00;0,0619
2788,00;0,0616
2787,00;0,0613
2786,00;0,0610
2785,00;0,0606
2784,00;0,0603
2783,00;0,0600
2782,00;0,0597
2781,00;0,0594
2780,00;0,0591
2779,00;0,0589
2778,00;0,0586
2777,00;0,0584
2776,00;0,0582
2775,00;0,0579
2774,00;0,0577
2773,00;0,0575
2772,00;0,0573
2771,00;0,0571
2770,00;0,0569
2769,00;0,0567
2768,00;0,0565
2767,00;0,0564
2766,00;0,0562
2765,00;0,0560
2764,00;0,0559
2763,00;0,0558
2762,00;0,0556
2761,00;0,0555
2760,00;0,0554
2759,00;0,0553
2758,00;0,0552
2757,00;0,0550
2756,00;0,0549
2755,00;0,0548
2754,00;0,0547
2753,00;0,0546
2752,00;0,0545
2751,00;0,0544
2750,00;0,0543
2749,00;0,0542
2748,00;0,0541
2747,00;0,0540
2746,00;0,0540
2745,00;0,0539
2744,00;0,0538
2743,00;0,0537
2742,00;0,0537
2741,00;0,0536
2740,00;0,0536
2739,00;0,0536
2738,00;0,0535
2737,00;0,0535
2736,00;0,0535
2735,00;0,0535
2734,00;0,0535
2733,00;0,0535
2732,00;0,0534
2731,00;0,0534
2730,00;0,0533
2729,00;0,0532
2728,00;0,0531
2727,00;0,0530
2726,00;0,0529
2725,00;0,0528
2724,00;0,0527
2723,00;0,0526
2722,00;0,0525
2721,00;0,0525
2720,00;0,0524
2719,00;0,0523
2718,00;0,0523
2717,00;0,0522
2716,00;0,0522
2715,00;0,0521
2714,00;0,0520
2713,00;0,0519
2712,00;0,0518
2711,00;0,0517
2710,00;0,0516
2709,00;0,0515
2708,00;0,0514
2707,00;0,0514
2706,00;0,0513
2705,00;0,0513
2704,00;0,0512
2703,00;0,0512
2702,00;0,0511
2701,00;0,0511
2700,00;0,0511
2699,00;0,0510
2698,00;0,0510
2697,00;0,0510
2696,00;0,0510
2695,00;0,0510
2694,00;0,0510
2693,00;0,0511
2692,00;0,0511
2691,00;0,0510
2690,00;0,0510
2689,00;0,0510
2688,00;0,0510
2687,00;0,0510
2686,00;0,0511
2685,00;0,0511
2684,00;0,0511
2683,00;0,0510
2682,00;0,0510
2681,00;0,0510
2680,00;0,0509
2679,00;0,0509
2678,00;0,0509
2677,00;0,0509
2676,00;0,0509
2675,00;0,0509
2674,00;0,0509
2673,00;0,0509
2672,00;0,0508
2671,00;0,0508
2670,00;0,0507
2669,00;0,0506
2668,00;0,0506
2667,00;0,0505
2666,00;0,0504
2665,00;0,0503
2664,00;0,0502
2663,00;0,0502
2662,00;0,0501
2661,00;0,0500
2660,00;0,0499
2659,00;0,0498
2658,00;0,0497
2657,00;0,0496
2656,00;0,0495
2655,00;0,0494
2654,00;0,0493
2653,00;0,0492
2652,00;0,0492
2651,00;0,0491
2650,00;0,0490
2649,00;0,0490
2648,00;0,0489
2647,00;0,0488
2646,00;0,0487
2645,00;0,0486
2644,00;0,0485
2643,00;0,0484
2642,00;0,0483
2641,00;0,0482
2640,00;0,0481
2639,00;0,0480
2638,00;0,0480
2637,00;0,0479
2636,00;0,0478
2635,00;0,0478
2634,00;0,0478
2633,00;0,0477
2632,00;0,0477
2631,00;0,0476
2630,00;0,0475
2629,00;0,0474
2628,00;0,0474
2627,00;0,0473
2626,00;0,0472
2625,00;0,0471
2624,00;0,0471
2623,00;0,0471
2622,00;0,0470
2621,00;0,0469
2620,00;0,0469
2619,00;0,0468
2618,00;0,0467
2617,00;0,0467
2616,00;0,0467
2615,00;0,0466
2614,00;0,0466
2613,00;0,0465
2612,00;0,0465
2611,00;0,0464
2610,00;0,0463
2609,00;0,0462
2608,00;0,0462
2607,00;0,0462
2606,00;0,0461
2605,00;0,0461
2604,00;0,0460
2603,00;0,0460
2602,00;0,0459
2601,00;0,0459
2600,00;0,0458
2599,00;0,0457
2598,00;0,0456
2597,00;0,0456
2596,00;0,0455
2595,00;0,0455
2594,00;0,0455
2593,00;0,0454
2592,00;0,0454
2591,00;0,0453
2590,00;0,0452
2589,00;0,0452
2588,00;0,0452
2587,00;0,0451
2586,00;0,0451
2585,00;0,0451
2584,00;0,0451
2583,00;0,0450
2582,00;0,0450
2581,00;0,0449
2580,00;0,0449
2579,00;0,0448
2578,00;0,0447
2577,00;0,0447
2576,00;0,0446
2575,00;0,0445
2574,00;0,0445
2573,00;0,0445
2572,00;0,0445
2571,00;0,0445
2570,00;0,0445
2569,00;0,0445
2568,00;0,0444
2567,00;0,0443
2566,00;0,0443
2565,00;0,0442
2564,00;0,0441
2563,00;0,0440
2562,00;0,0440
2561,00;0,0440
2560,00;0,0440
2559,00;0,0440
2558,00;0,0440
2557,00;0,0440
2556,00;0,0440
2555,00;0,0439
2554,00;0,0439
2553,00;0,0438
2552,00;0,0438
2551,00;0,0438
2550,00;0,0437
2549,00;0,0437
2548,00;0,0436
2547,00;0,0435
2546,00;0,0435
2545,00;0,0435
2544,00;0,0436
2543,00;0,0436
2542,00;0,0436
2541,00;0,0436
2540,00;0,0436
2539,00;0,0435
2538,00;0,0435
2537,00;0,0434
2536,00;0,0434
2535,00;0,0434
2534,00;0,0434
2533,00;0,0433
2532,00;0,0432
2531,00;0,0432
2530,00;0,0431
2529,00;0,0431
2528,00;0,0432
2527,00;0,0432
2526,00;0,0432
2525,00;0,0432
2524,00;0,0432
2523,00;0,0432
2522,00;0,0431
2521,00;0,0430
2520,00;0,0429
2519,00;0,0428
2518,00;0,0428
2517,00;0,0427
2516,00;0,0427
2515,00;0,0427
2514,00;0,0427
2513,00;0,0427
2512,00;0,0427
2511,00;0,0427
2510,00;0,0427
2509,00;0,0427
2508,00;0,0427
2507,00;0,0426
2506,00;0,0425
2505,00;0,0424
2504,00;0,0424
2503,00;0,0424
2502,00;0,0424
2501,00;0,0424
2500,00;0,0423
2499,00;0,0422
2498,00;0,0422
2497,00;0,0422
2496,00;0,0422
2495,00;0,0422
2494,00;0,0421
2493,00;0,0420
2492,00;0,0420
2491,00;0,0419
2490,00;0,0418
2489,00;0,0418
2488,00;0,0418
2487,00;0,0418
2486,00;0,0418
2485,00;0,0418
2484,00;0,0418
2483,00;0,0418
2482,00;0,0418
2481,00;0,0418
2480,00;0,0418
2479,00;0,0419
2478,00;0,0418
2477,00;0,0418
2476,00;0,0418
2475,00;0,0418
2474,00;0,0417
2473,00;0,0417
2472,00;0,0417
2471,00;0,0417
2470,00;0,0417
2469,00;0,0416
2468,00;0,0415
2467,00;0,0415
2466,00;0,0415
2465,00;0,0415
2464,00;0,0415
2463,00;0,0415
2462,00;0,0415
2461,00;0,0414
2460,00;0,0413
2459,00;0,0413
2458,00;0,0412
2457,00;0,0413
2456,00;0,0413
2455,00;0,0413
2454,00;0,0413
2453,00;0,0413
2452,00;0,0413
2451,00;0,0413
2450,00;0,0413
2449,00;0,0413
2448,00;0,0412
2447,00;0,0412
2446,00;0,0412
2445,00;0,0412
2444,00;0,0412
2443,00;0,0412
2442,00;0,0411
2441,00;0,0411
2440,00;0,0411
2439,00;0,0412
2438,00;0,0412
2437,00;0,0411
2436,00;0,0411
2435,00;0,0410
2434,00;0,0410
2433,00;0,0410
2432,00;0,0410
2431,00;0,0410
2430,00;0,0410
2429,00;0,0410
2428,00;0,0410
2427,00;0,0409
2426,00;0,0409
2425,00;0,0408
2424,00;0,0408
2423,00;0,0408
2422,00;0,0408
2421,00;0,0408
2420,00;0,0408
2419,00;0,0408
2418,00;0,0409
2417,00;0,0410
2416,00;0,0410
2415,00;0,0410
2414,00;0,0409
2413,00;0,0409
2412,00;0,0409
2411,00;0,0410
2410,00;0,0410
2409,00;0,0410
2408,00;0,0409
2407,00;0,0409
2406,00;0,0408
2405,00;0,0408
2404,00;0,0408
2403,00;0,0408
2402,00;0,0409
2401,00;0,0409
2400,00;0,0408
2399,00;0,0408
2398,00;0,0408
2397,00;0,0408
2396,00;0,0408
2395,00;0,0407
2394,00;0,0407
2393,00;0,0406
2392,00;0,0407
2391,00;0,0407
2390,00;0,0407
2389,00;0,0408
2388,00;0,0408
2387,00;0,0407
2386,00;0,0407
2385,00;0,0407
2384,00;0,0408
2383,00;0,0408
2382,00;0,0408
2381,00;0,0408
2380,00;0,0408
2379,00;0,0407
2378,00;0,0407
2377,00;0,0407
2376,00;0,0407
2375,00;0,0408
2374,00;0,0408
2373,00;0,0408
2372,00;0,0407
2371,00;0,0407
2370,00;0,0406
2369,00;0,0406
2368,00;0,0406
2367,00;0,0406
2366,00;0,0406
2365,00;0,0407
2364,00;0,0408
2363,00;0,0409
2362,00;0,0408
2361,00;0,0408
2360,00;0,0407
2359,00;0,0407
2358,00;0,0406
2357,00;0,0406
2356,00;0,0406
2355,00;0,0405
2354,00;0,0405
2353,00;0,0405
2352,00;0,0406
2351,00;0,0406
2350,00;0,0406
2349,00;0,0406
2348,00;0,0406
2347,00;0,0406
2346,00;0,0407
2345,00;0,0407
2344,00;0,0408
2343,00;0,0407
2342,00;0,0405
2341,00;0,0404
2340,00;0,0404
2339,00;0,0404
2338,00;0,0404
2337,00;0,0404
2336,00;0,0404
2335,00;0,0404
2334,00;0,0405
2333,00;0,0405
2332,00;0,0406
2331,00;0,0405
2330,00;0,0405
2329,00;0,0404
2328,00;0,0404
2327,00;0,0403
2326,00;0,0403
2325,00;0,0402
2324,00;0,0401
2323,00;0,0400
2322,00;0,0399
2321,00;0,0399
2320,00;0,0399
2319,00;0,0399
2318,00;0,0400
2317,00;0,0400
2316,00;0,0400
2315,00;0,0399
2314,00;0,0399
2313,00;0,0398
2312,00;0,0397
2311,00;0,0397
2310,00;0,0397
2309,00;0,0397
2308,00;0,0397
2307,00;0,0397
2306,00;0,0396
2305,00;0,0396
2304,00;0,0395
2303,00;0,0394
2302,00;0,0393
2301,00;0,0392
2300,00;0,0392
2299,00;0,0392
2298,00;0,0392
2297,00;0,0392
2296,00;0,0392
2295,00;0,0392
2294,00;0,0392
2293,00;0,0392
2292,00;0,0391
2291,00;0,0391
2290,00;0,0391
2289,00;0,0390
2288,00;0,0389
2287,00;0,0389
2286,00;0,0388
2285,00;0,0388
2284,00;0,0389
2283,00;0,0389
2282,00;0,0388
2281,00;0,0388
2280,00;0,0388
2279,00;0,0387
2278,00;0,0387
2277,00;0,0387
2276,00;0,0386
2275,00;0,0386
2274,00;0,0386
2273,00;0,0386
2272,00;0,0386
2271,00;0,0386
2270,00;0,0386
2269,00;0,0385
2268,00;0,0385
2267,00;0,0386
2266,00;0,0386
2265,00;0,0385
2264,00;0,0384
2263,00;0,0383
2262,00;0,0383
2261,00;0,0383
2260,00;0,0383
2259,00;0,0383
2258,00;0,0382
2257,00;0,0382
2256,00;0,0382
2255,00;0,0383
2254,00;0,0384
2253,00;0,0384
2252,00;0,0384
2251,00;0,0384
2250,00;0,0384
2249,00;0,0385
2248,00;0,0385
2247,00;0,0385
2246,00;0,0384
2245,00;0,0382
2244,00;0,0381
2243,00;0,0380
2242,00;0,0380
2241,00;0,0380
2240,00;0,0380
2239,00;0,0379
2238,00;0,0378
2237,00;0,0378
2236,00;0,0378
2235,00;0,0380
2234,00;0,0381
2233,00;0,0381
2232,00;0,0381
2231,00;0,0380
2230,00;0,0378
2229,00;0,0376
2228,00;0,0376
2227,00;0,0376
2226,00;0,0377
2225,00;0,0378
2224,00;0,0378
2223,00;0,0377
2222,00;0,0376
2221,00;0,0375
2220,00;0,0375
2219,00;0,0376
2218,00;0,0377
2217,00;0,0379
2216,00;0,0379
2215,00;0,0379
2214,00;0,0377
2213,00;0,0376
2212,00;0,0376
2211,00;0,0376
2210,00;0,0378
2209,00;0,0380
2208,00;0,0381
2207,00;0,0380
2206,00;0,0378
2205,00;0,0375
2204,00;0,0373
2203,00;0,0370
2202,00;0,0368
2201,00;0,0368
2200,00;0,0368
2199,00;0,0370
2198,00;0,0373
2197,00;0,0374
2196,00;0,0375
2195,00;0,0374
2194,00;0,0372
2193,00;0,0371
2192,00;0,0371
2191,00;0,0371
2190,00;0,0372
2189,00;0,0373
2188,00;0,0374
2187,00;0,0375
2186,00;0,0376
2185,00;0,0377
2184,00;0,0376
2183,00;0,0374
2182,00;0,0372
2181,00;0,0371
2180,00;0,0371
2179,00;0,0372
2178,00;0,0373
2177,00;0,0373
2176,00;0,0374
2175,00;0,0373
2174,00;0,0372
2173,00;0,0370
2172,00;0,0368
2171,00;0,0366
2170,00;0,0363
2169,00;0,0362
2168,00;0,0361
2167,00;0,0360
2166,00;0,0358
2165,00;0,0357
2164,00;0,0360
2163,00;0,0364
2162,00;0,0369
2161,00;0,0371
2160,00;0,0369
2159,00;0,0365
2158,00;0,0362
2157,00;0,0362
2156,00;0,0364
2155,00;0,0367
2154,00;0,0369
2153,00;0,0371
2152,00;0,0370
2151,00;0,0367
2150,00;0,0364
2149,00;0,0362
2148,00;0,0362
2147,00;0,0363
2146,00;0,0364
2145,00;0,0364
2144,00;0,0364
2143,00;0,0364
2142,00;0,0365
2141,00;0,0366
2140,00;0,0367
2139,00;0,0367
2138,00;0,0367
2137,00;0,0367
2136,00;0,0367
2135,00;0,0367
2134,00;0,0367
2133,00;0,0367
2132,00;0,0366
2131,00;0,0365
2130,00;0,0363
2129,00;0,0363
2128,00;0,0363
2127,00;0,0363
2126,00;0,0363
2125,00;0,0364
2124,00;0,0365
2123,00;0,0365
2122,00;0,0364
2121,00;0,0363
2120,00;0,0363
2119,00;0,0363
2118,00;0,0364
2117,00;0,0366
2116,00;0,0367
2115,00;0,0367
2114,00;0,0365
2113,00;0,0363
2112,00;0,0361
2111,00;0,0360
2110,00;0,0360
2109,00;0,0359
2108,00;0,0359
2107,00;0,0358
2106,00;0,0358
2105,00;0,0357
2104,00;0,0357
2103,00;0,0357
2102,00;0,0358
2101,00;0,0359
2100,00;0,0360
2099,00;0,0361
2098,00;0,0362
2097,00;0,0362
2096,00;0,0363
2095,00;0,0364
2094,00;0,0363
2093,00;0,0362
2092,00;0,0361
2091,00;0,0360
2090,00;0,0359
2089,00;0,0360
2088,00;0,0360
2087,00;0,0360
2086,00;0,0360
2085,00;0,0359
2084,00;0,0359
2083,00;0,0359
2082,00;0,0359
2081,00;0,0360
2080,00;0,0360
2079,00;0,0360
2078,00;0,0359
2077,00;0,0357
2076,00;0,0356
2075,00;0,0355
2074,00;0,0354
2073,00;0,0354
2072,00;0,0354
2071,00;0,0355
2070,00;0,0355
2069,00;0,0355
2068,00;0,0354
2067,00;0,0352
2066,00;0,0351
2065,00;0,0351
2064,00;0,0352
2063,00;0,0353
2062,00;0,0354
2061,00;0,0354
2060,00;0,0355
2059,00;0,0356
2058,00;0,0355
2057,00;0,0353
2056,00;0,0352
2055,00;0,0352
2054,00;0,0353
2053,00;0,0354
2052,00;0,0354
2051,00;0,0352
2050,00;0,0349
2049,00;0,0348
2048,00;0,0348
2047,00;0,0350
2046,00;0,0352
2045,00;0,0354
2044,00;0,0354
2043,00;0,0352
2042,00;0,0350
2041,00;0,0348
2040,00;0,0346
2039,00;0,0345
2038,00;0,0345
2037,00;0,0346
2036,00;0,0346
2035,00;0,0343
2034,00;0,0340
2033,00;0,0339
2032,00;0,0340
2031,00;0,0343
2030,00;0,0345
2029,00;0,0346
2028,00;0,0347
2027,00;0,0347
2026,00;0,0348
2025,00;0,0349
2024,00;0,0349
2023,00;0,0348
2022,00;0,0346
2021,00;0,0346
2020,00;0,0346
2019,00;0,0346
2018,00;0,0346
2017,00;0,0345
2016,00;0,0344
2015,00;0,0343
2014,00;0,0342
2013,00;0,0344
2012,00;0,0345
2011,00;0,0344
2010,00;0,0342
2009,00;0,0341
2008,00;0,0342
2007,00;0,0343
2006,00;0,0344
2005,00;0,0344
2004,00;0,0345
2003,00;0,0345
2002,00;0,0345
2001,00;0,0345
2000,00;0,0344
1999,00;0,0343
1998,00;0,0341
1997,00;0,0341
1996,00;0,0341
1995,00;0,0340
1994,00;0,0337
1993,00;0,0336
1992,00;0,0335
1991,00;0,0335
1990,00;0,0335
1989,00;0,0335
1988,00;0,0336
1987,00;0,0336
1986,00;0,0336
1985,00;0,0336
1984,00;0,0335
1983,00;0,0334
1982,00;0,0331
1981,00;0,0329
1980,00;0,0328
1979,00;0,0328
1978,00;0,0329
1977,00;0,0330
1976,00;0,0332
1975,00;0,0333
1974,00;0,0335
1973,00;0,0336
1972,00;0,0337
1971,00;0,0337
1970,00;0,0336
1969,00;0,0336
1968,00;0,0336
1967,00;0,0336
1966,00;0,0337
1965,00;0,0338
1964,00;0,0339
1963,00;0,0340
1962,00;0,0340
1961,00;0,0341
1960,00;0,0342
1959,00;0,0341
1958,00;0,0339
1957,00;0,0337
1956,00;0,0336
1955,00;0,0336
1954,00;0,0335
1953,00;0,0335
1952,00;0,0335
1951,00;0,0335
1950,00;0,0336
1949,00;0,0337
1948,00;0,0338
1947,00;0,0339
1946,00;0,0340
1945,00;0,0341
1944,00;0,0341
1943,00;0,0339
1942,00;0,0336
1941,00;0,0334
1940,00;0,0334
1939,00;0,0334
1938,00;0,0334
1937,00;0,0334
1936,00;0,0333
1935,00;0,0333
1934,00;0,0333
1933,00;0,0335
1932,00;0,0336
1931,00;0,0338
1930,00;0,0338
1929,00;0,0338
1928,00;0,0338
1927,00;0,0338
1926,00;0,0338
1925,00;0,0339
1924,00;0,0339
1923,00;0,0339
1922,00;0,0338
1921,00;0,0338
1920,00;0,0339
1919,00;0,0340
1918,00;0,0340
1917,00;0,0341
1916,00;0,0341
1915,00;0,0340
1914,00;0,0340
1913,00;0,0339
1912,00;0,0339
1911,00;0,0339
1910,00;0,0338
1909,00;0,0339
1908,00;0,0339
1907,00;0,0339
1906,00;0,0339
1905,00;0,0339
1904,00;0,0338
1903,00;0,0338
1902,00;0,0338
1901,00;0,0339
1900,00;0,0339
1899,00;0,0340
1898,00;0,0340
1897,00;0,0339
1896,00;0,0339
1895,00;0,0339
1894,00;0,0338
1893,00;0,0337
1892,00;0,0337
1891,00;0,0337
1890,00;0,0337
1889,00;0,0337
1888,00;0,0337
1887,00;0,0337
1886,00;0,0337
1885,00;0,0337
1884,00;0,0337
1883,00;0,0337
1882,00;0,0337
1881,00;0,0338
1880,00;0,0338
1879,00;0,0338
1878,00;0,0337
1877,00;0,0336
1876,00;0,0337
1875,00;0,0337
1874,00;0,0337
1873,00;0,0337
1872,00;0,0337
1871,00;0,0337
1870,00;0,0337
1869,00;0,0337
1868,00;0,0337
1867,00;0,0336
1866,00;0,0337
1865,00;0,0337
1864,00;0,0338
1863,00;0,0338
1862,00;0,0338
1861,00;0,0338
1860,00;0,0338
1859,00;0,0339
1858,00;0,0338
1857,00;0,0338
1856,00;0,0337
1855,00;0,0337
1854,00;0,0337
1853,00;0,0337
1852,00;0,0337
1851,00;0,0337
1850,00;0,0336
1849,00;0,0335
1848,00;0,0334
1847,00;0,0333
1846,00;0,0333
1845,00;0,0334
1844,00;0,0335
1843,00;0,0335
1842,00;0,0336
1841,00;0,0336
1840,00;0,0336
1839,00;0,0336
1838,00;0,0336
1837,00;0,0336
1836,00;0,0336
1835,00;0,0335
1834,00;0,0335
1833,00;0,0335
1832,00;0,0335
1831,00;0,0336
1830,00;0,0337
1829,00;0,0337
1828,00;0,0337
1827,00;0,0337
1826,00;0,0336
1825,00;0,0336
1824,00;0,0336
1823,00;0,0336
1822,00;0,0337
1821,00;0,0337
1820,00;0,0337
1819,00;0,0337
1818,00;0,0337
1817,00;0,0338
1816,00;0,0339
1815,00;0,0339
1814,00;0,0339
1813,00;0,0340
1812,00;0,0340
1811,00;0,0339
1810,00;0,0339
1809,00;0,0339
1808,00;0,0339
1807,00;0,0339
1806,00;0,0339
1805,00;0,0339
1804,00;0,0339
1803,00;0,0340
1802,00;0,0340
1801,00;0,0340
1800,00;0,0341
1799,00;0,0341
1798,00;0,0342
1797,00;0,0342
1796,00;0,0343
1795,00;0,0343
1794,00;0,0344
1793,00;0,0345
1792,00;0,0345
1791,00;0,0345
1790,00;0,0345
1789,00;0,0346
1788,00;0,0347
1787,00;0,0347
1786,00;0,0348
1785,00;0,0348
1784,00;0,0349
1783,00;0,0349
1782,00;0,0349
1781,00;0,0351
1780,00;0,0352
1779,00;0,0353
1778,00;0,0354
1777,00;0,0355
1776,00;0,0356
1775,00;0,0356
1774,00;0,0357
1773,00;0,0358
1772,00;0,0360
1771,00;0,0362
1770,00;0,0363
1769,00;0,0364
1768,00;0,0365
1767,00;0,0365
1766,00;0,0365
1765,00;0,0366
1764,00;0,0367
1763,00;0,0368
1762,00;0,0369
1761,00;0,0369
1760,00;0,0369
1759,00;0,0369
1758,00;0,0369
1757,00;0,0369
1756,00;0,0368
1755,00;0,0368
1754,00;0,0368
1753,00;0,0368
1752,00;0,0367
1751,00;0,0367
1750,00;0,0367
1749,00;0,0368
1748,00;0,0370
1747,00;0,0371
1746,00;0,0373
1745,00;0,0375
1744,00;0,0378
1743,00;0,0382
1742,00;0,0386
1741,00;0,0390
1740,00;0,0394
1739,00;0,0398
1738,00;0,0402
1737,00;0,0405
1736,00;0,0410
1735,00;0,0418
1734,00;0,0427
1733,00;0,0438
1732,00;0,0450
1731,00;0,0465
1730,00;0,0484
1729,00;0,0510
1728,00;0,0543
1727,00;0,0585
1726,00;0,0639
1725,00;0,0703
1724,00;0,0778
1723,00;0,0857
1722,00;0,0934
1721,00;0,1004
1720,00;0,1069
1719,00;0,1135
1718,00;0,1201
1717,00;0,1256
1716,00;0,1292
1715,00;0,1311
1714,00;0,1318
1713,00;0,1311
1712,00;0,1293
1711,00;0,1268
1710,00;0,1236
1709,00;0,1199
1708,00;0,1158
1707,00;0,1116
1706,00;0,1071
1705,00;0,1027
1704,00;0,0987
1703,00;0,0952
1702,00;0,0918
1701,00;0,0881
1700,00;0,0845
1699,00;0,0816
1698,00;0,0792
1697,00;0,0768
1696,00;0,0740
1695,00;0,0713
1694,00;0,0692
1693,00;0,0675
1692,00;0,0660
1691,00;0,0644
1690,00;0,0630
1689,00;0,0617
1688,00;0,0606
1687,00;0,0596
1686,00;0,0586
1685,00;0,0577
1684,00;0,0568
1683,00;0,0562
1682,00;0,0558
1681,00;0,0554
1680,00;0,0550
1679,00;0,0545
1678,00;0,0540
1677,00;0,0536
1676,00;0,0532
1675,00;0,0528
1674,00;0,0525
1673,00;0,0523
1672,00;0,0520
1671,00;0,0517
1670,00;0,0514
1669,00;0,0510
1668,00;0,0507
1667,00;0,0504
1666,00;0,0501
1665,00;0,0498
1664,00;0,0495
1663,00;0,0491
1662,00;0,0488
1661,00;0,0486
1660,00;0,0485
1659,00;0,0484
1658,00;0,0483
1657,00;0,0481
1656,00;0,0480
1655,00;0,0478
1654,00;0,0477
1653,00;0,0478
1652,00;0,0478
1651,00;0,0477
1650,00;0,0478
1649,00;0,0478
1648,00;0,0477
1647,00;0,0477
1646,00;0,0478
1645,00;0,0478
1644,00;0,0479
1643,00;0,0480
1642,00;0,0481
1641,00;0,0482
1640,00;0,0482
1639,00;0,0482
1638,00;0,0482
1637,00;0,0483
1636,00;0,0485
1635,00;0,0486
1634,00;0,0487
1633,00;0,0487
1632,00;0,0487
1631,00;0,0487
1630,00;0,0486
1629,00;0,0486
1628,00;0,0486
1627,00;0,0487
1626,00;0,0488
1625,00;0,0489
1624,00;0,0490
1623,00;0,0491
1622,00;0,0492
1621,00;0,0493
1620,00;0,0494
1619,00;0,0495
1618,00;0,0497
1617,00;0,0499
1616,00;0,0502
1615,00;0,0504
1614,00;0,0505
1613,00;0,0507
1612,00;0,0508
1611,00;0,0509
1610,00;0,0510
1609,00;0,0511
1608,00;0,0513
1607,00;0,0515
1606,00;0,0517
1605,00;0,0518
1604,00;0,0520
1603,00;0,0521
1602,00;0,0521
1601,00;0,0522
1600,00;0,0522
1599,00;0,0522
1598,00;0,0522
1597,00;0,0522
1596,00;0,0522
1595,00;0,0521
1594,00;0,0521
1593,00;0,0521
1592,00;0,0521
1591,00;0,0520
1590,00;0,0520
1589,00;0,0519
1588,00;0,0518
1587,00;0,0517
1586,00;0,0515
1585,00;0,0514
1584,00;0,0513
1583,00;0,0512
1582,00;0,0512
1581,00;0,0511
1580,00;0,0510
1579,00;0,0510
1578,00;0,0509
1577,00;0,0508
1576,00;0,0507
1575,00;0,0506
1574,00;0,0505
1573,00;0,0504
1572,00;0,0503
1571,00;0,0501
1570,00;0,0499
1569,00;0,0497
1568,00;0,0495
1567,00;0,0493
1566,00;0,0490
1565,00;0,0488
1564,00;0,0485
1563,00;0,0482
1562,00;0,0480
1561,00;0,0478
1560,00;0,0476
1559,00;0,0474
1558,00;0,0473
1557,00;0,0472
1556,00;0,0471
1555,00;0,0470
1554,00;0,0468
1553,00;0,0466
1552,00;0,0464
1551,00;0,0463
1550,00;0,0462
1549,00;0,0460
1548,00;0,0459
1547,00;0,0458
1546,00;0,0457
1545,00;0,0456
1544,00;0,0455
1543,00;0,0454
1542,00;0,0454
1541,00;0,0454
1540,00;0,0454
1539,00;0,0453
1538,00;0,0452
1537,00;0,0451
1536,00;0,0451
1535,00;0,0451
1534,00;0,0450
1533,00;0,0450
1532,00;0,0450
1531,00;0,0450
1530,00;0,0450
1529,00;0,0450
1528,00;0,0450
1527,00;0,0450
1526,00;0,0449
1525,00;0,0449
1524,00;0,0449
1523,00;0,0449
1522,00;0,0449
1521,00;0,0449
1520,00;0,0449
1519,00;0,0450
1518,00;0,0451
1517,00;0,0452
1516,00;0,0452
1515,00;0,0452
1514,00;0,0451
1513,00;0,0451
1512,00;0,0450
1511,00;0,0450
1510,00;0,0450
1509,00;0,0451
1508,00;0,0451
1507,00;0,0451
1506,00;0,0451
1505,00;0,0450
1504,00;0,0451
1503,00;0,0451
1502,00;0,0451
1501,00;0,0451
1500,00;0,0452
1499,00;0,0453
1498,00;0,0454
1497,00;0,0455
1496,00;0,0457
1495,00;0,0459
1494,00;0,0460
1493,00;0,0463
1492,00;0,0465
1491,00;0,0467
1490,00;0,0468
1489,00;0,0469
1488,00;0,0470
1487,00;0,0471
1486,00;0,0471
1485,00;0,0473
1484,00;0,0475
1483,00;0,0477
1482,00;0,0481
1481,00;0,0486
1480,00;0,0492
1479,00;0,0498
1478,00;0,0507
1477,00;0,0519
1476,00;0,0535
1475,00;0,0556
1474,00;0,0590
1473,00;0,0645
1472,00;0,0722
1471,00;0,0811
1470,00;0,0906
1469,00;0,1003
1468,00;0,1093
1467,00;0,1170
1466,00;0,1228
1465,00;0,1267
1464,00;0,1289
1463,00;0,1299
1462,00;0,1303
1461,00;0,1305
1460,00;0,1306
1459,00;0,1307
1458,00;0,1309
1457,00;0,1312
1456,00;0,1308
1455,00;0,1295
1454,00;0,1274
1453,00;0,1247
1452,00;0,1216
1451,00;0,1185
1450,00;0,1158
1449,00;0,1135
1448,00;0,1115
1447,00;0,1099
1446,00;0,1086
1445,00;0,1074
1444,00;0,1064
1443,00;0,1054
1442,00;0,1046
1441,00;0,1038
1440,00;0,1031
1439,00;0,1023
1438,00;0,1013
1437,00;0,1002
1436,00;0,0989
1435,00;0,0975
1434,00;0,0959
1433,00;0,0941
1432,00;0,0920
1431,00;0,0896
1430,00;0,0872
1429,00;0,0848
1428,00;0,0826
1427,00;0,0807
1426,00;0,0791
1425,00;0,0778
1424,00;0,0767
1423,00;0,0759
1422,00;0,0754
1421,00;0,0752
1420,00;0,0752
1419,00;0,0756
1418,00;0,0762
1417,00;0,0769
1416,00;0,0777
1415,00;0,0784
1414,00;0,0792
1413,00;0,0800
1412,00;0,0808
1411,00;0,0814
1410,00;0,0818
1409,00;0,0819
1408,00;0,0817
1407,00;0,0813
1406,00;0,0807
1405,00;0,0798
1404,00;0,0787
1403,00;0,0774
1402,00;0,0760
1401,00;0,0744
1400,00;0,0728
1399,00;0,0711
1398,00;0,0697
1397,00;0,0686
1396,00;0,0676
1395,00;0,0668
1394,00;0,0661
1393,00;0,0655
1392,00;0,0652
1391,00;0,0650
1390,00;0,0650
1389,00;0,0651
1388,00;0,0653
1387,00;0,0660
1386,00;0,0669
1385,00;0,0683
1384,00;0,0701
1383,00;0,0725
1382,00;0,0756
1381,00;0,0792
1380,00;0,0832
1379,00;0,0869
1378,00;0,0898
1377,00;0,0915
1376,00;0,0921
1375,00;0,0920
1374,00;0,0917
1373,00;0,0914
1372,00;0,0913
1371,00;0,0914
1370,00;0,0915
1369,00;0,0915
1368,00;0,0914
1367,00;0,0911
1366,00;0,0906
1365,00;0,0899
1364,00;0,0891
1363,00;0,0883
1362,00;0,0875
1361,00;0,0867
1360,00;0,0861
1359,00;0,0855
1358,00;0,0851
1357,00;0,0847
1356,00;0,0843
1355,00;0,0840
1354,00;0,0837
1353,00;0,0833
1352,00;0,0829
1351,00;0,0824
1350,00;0,0818
1349,00;0,0811
1348,00;0,0803
1347,00;0,0795
1346,00;0,0786
1345,00;0,0779
1344,00;0,0772
1343,00;0,0766
1342,00;0,0760
1341,00;0,0754
1340,00;0,0747
1339,00;0,0739
1338,00;0,0731
1337,00;0,0723
1336,00;0,0715
1335,00;0,0708
1334,00;0,0702
1333,00;0,0698
1332,00;0,0694
1331,00;0,0691
1330,00;0,0689
1329,00;0,0688
1328,00;0,0686
1327,00;0,0685
1326,00;0,0684
1325,00;0,0683
1324,00;0,0683
1323,00;0,0683
1322,00;0,0684
1321,00;0,0685
1320,00;0,0686
1319,00;0,0688
1318,00;0,0690
1317,00;0,0692
1316,00;0,0694
1315,00;0,0696
1314,00;0,0699
1313,00;0,0701
1312,00;0,0704
1311,00;0,0707
1310,00;0,0710
1309,00;0,0712
1308,00;0,0714
1307,00;0,0715
1306,00;0,0717
1305,00;0,0718
1304,00;0,0719
1303,00;0,0721
1302,00;0,0722
1301,00;0,0722
1300,00;0,0721
1299,00;0,0720
1298,00;0,0718
1297,00;0,0715
1296,00;0,0713
1295,00;0,0711
1294,00;0,0709
1293,00;0,0707
1292,00;0,0705
1291,00;0,0703
1290,00;0,0701
1289,00;0,0698
1288,00;0,0696
1287,00;0,0694
1286,00;0,0693
1285,00;0,0691
1284,00;0,0690
1283,00;0,0690
1282,00;0,0690
1281,00;0,0689
1280,00;0,0689
1279,00;0,0688
1278,00;0,0688
1277,00;0,0687
1276,00;0,0686
1275,00;0,0685
1274,00;0,0684
1273,00;0,0682
1272,00;0,0681
1271,00;0,0679
1270,00;0,0678
1269,00;0,0677
1268,00;0,0675
1267,00;0,0674
1266,00;0,0673
1265,00;0,0672
1264,00;0,0671
1263,00;0,0670
1262,00;0,0669
1261,00;0,0669
1260,00;0,0668
1259,00;0,0668
1258,00;0,0667
1257,00;0,0667
1256,00;0,0666
1255,00;0,0665
1254,00;0,0664
1253,00;0,0663
1252,00;0,0662
1251,00;0,0662
1250,00;0,0661
1249,00;0,0661
1248,00;0,0661
1247,00;0,0660
1246,00;0,0660
1245,00;0,0659
1244,00;0,0658
1243,00;0,0657
1242,00;0,0657
1241,00;0,0656
1240,00;0,0655
1239,00;0,0654
1238,00;0,0654
1237,00;0,0653
1236,00;0,0652
1235,00;0,0651
1234,00;0,0651
1233,00;0,0650
1232,00;0,0650
1231,00;0,0649
1230,00;0,0649
1229,00;0,0648
1228,00;0,0647
1227,00;0,0646
1226,00;0,0645
1225,00;0,0644
1224,00;0,0643
1223,00;0,0642
1222,00;0,0642
1221,00;0,0642
1220,00;0,0642
1219,00;0,0642
1218,00;0,0642
1217,00;0,0642
1216,00;0,0642
1215,00;0,0643
1214,00;0,0643
1213,00;0,0644
1212,00;0,0644
1211,00;0,0644
1210,00;0,0644
1209,00;0,0645
1208,00;0,0645
1207,00;0,0645
1206,00;0,0645
1205,00;0,0645
1204,00;0,0644
1203,00;0,0644
1202,00;0,0644
1201,00;0,0644
1200,00;0,0644
1199,00;0,0644
1198,00;0,0643
1197,00;0,0643
1196,00;0,0643
1195,00;0,0643
1194,00;0,0642
1193,00;0,0642
1192,00;0,0642
1191,00;0,0642
1190,00;0,0642
1189,00;0,0641
1188,00;0,0641
1187,00;0,0640
1186,00;0,0640
1185,00;0,0639
1184,00;0,0639
1183,00;0,0638
1182,00;0,0638
1181,00;0,0638
1180,00;0,0638
1179,00;0,0638
1178,00;0,0638
1177,00;0,0638
1176,00;0,0637
1175,00;0,0637
1174,00;0,0637
1173,00;0,0636
1172,00;0,0635
1171,00;0,0635
1170,00;0,0635
1169,00;0,0634
1168,00;0,0634
1167,00;0,0633
1166,00;0,0633
1165,00;0,0632
1164,00;0,0631
1163,00;0,0630
1162,00;0,0629
1161,00;0,0627
1160,00;0,0626
1159,00;0,0625
1158,00;0,0624
1157,00;0,0624
1156,00;0,0623
1155,00;0,0623
1154,00;0,0622
1153,00;0,0620
1152,00;0,0619
1151,00;0,0619
1150,00;0,0619
1149,00;0,0619
1148,00;0,0619
1147,00;0,0619
1146,00;0,0619
1145,00;0,0619
1144,00;0,0620
1143,00;0,0621
1142,00;0,0622
1141,00;0,0623
1140,00;0,0624
1139,00;0,0625
1138,00;0,0626
1137,00;0,0629
1136,00;0,0631
1135,00;0,0633
1134,00;0,0634
1133,00;0,0635
1132,00;0,0635
1131,00;0,0634
1130,00;0,0634
1129,00;0,0633
1128,00;0,0632
1127,00;0,0631
1126,00;0,0631
1125,00;0,0630
1124,00;0,0630
1123,00;0,0630
1122,00;0,0630
1121,00;0,0631
1120,00;0,0634
1119,00;0,0636
1118,00;0,0639
1117,00;0,0642
1116,00;0,0645
1115,00;0,0648
1114,00;0,0651
1113,00;0,0654
1112,00;0,0656
1111,00;0,0659
1110,00;0,0661
1109,00;0,0663
1108,00;0,0664
1107,00;0,0664
1106,00;0,0663
1105,00;0,0663
1104,00;0,0663
1103,00;0,0662
1102,00;0,0660
1101,00;0,0658
1100,00;0,0656
1099,00;0,0654
1098,00;0,0651
1097,00;0,0649
1096,00;0,0647
1095,00;0,0645
1094,00;0,0643
1093,00;0,0642
1092,00;0,0641
1091,00;0,0641
1090,00;0,0641
1089,00;0,0641
1088,00;0,0641
1087,00;0,0641
1086,00;0,0641
1085,00;0,0641
1084,00;0,0641
1083,00;0,0642
1082,00;0,0643
1081,00;0,0645
1080,00;0,0647
1079,00;0,0648
1078,00;0,0649
1077,00;0,0650
1076,00;0,0652
1075,00;0,0653
1074,00;0,0654
1073,00;0,0655
1072,00;0,0656
1071,00;0,0656
1070,00;0,0657
1069,00;0,0658
1068,00;0,0659
1067,00;0,0661
1066,00;0,0662
1065,00;0,0663
1064,00;0,0665
1063,00;0,0666
1062,00;0,0667
1061,00;0,0667
1060,00;0,0667
1059,00;0,0667
1058,00;0,0666
1057,00;0,0665
1056,00;0,0664
1055,00;0,0664
1054,00;0,0664
1053,00;0,0664
1052,00;0,0664
1051,00;0,0663
1050,00;0,0663
1049,00;0,0662
1048,00;0,0662
1047,00;0,0661
1046,00;0,0659
1045,00;0,0657
1044,00;0,0656
1043,00;0,0655
1042,00;0,0654
1041,00;0,0653
1040,00;0,0651
1039,00;0,0650
1038,00;0,0649
1037,00;0,0647
1036,00;0,0646
1035,00;0,0644
1034,00;0,0643
1033,00;0,0642
1032,00;0,0641
1031,00;0,0641
1030,00;0,0640
1029,00;0,0639
1028,00;0,0638
1027,00;0,0637
1026,00;0,0636
1025,00;0,0635
1024,00;0,0634
1023,00;0,0634
1022,00;0,0633
1021,00;0,0632
1020,00;0,0630
1019,00;0,0629
1018,00;0,0628
1017,00;0,0628
1016,00;0,0628
1015,00;0,0628
1014,00;0,0628
1013,00;0,0628
1012,00;0,0628
1011,00;0,0627
1010,00;0,0626
1009,00;0,0625
1008,00;0,0624
1007,00;0,0623
1006,00;0,0622
1005,00;0,0621
1004,00;0,0620
1003,00;0,0620
1002,00;0,0620
1001,00;0,0620
1000,00;0,0621
999,00;0,0622
998,00;0,0622
997,00;0,0623
996,00;0,0625
995,00;0,0627
994,00;0,0630
993,00;0,0634
992,00;0,0639
991,00;0,0644
990,00;0,0649
989,00;0,0656
988,00;0,0662
987,00;0,0669
986,00;0,0673
985,00;0,0677
984,00;0,0678
983,00;0,0679
982,00;0,0680
981,00;0,0682
980,00;0,0687
979,00;0,0695
978,00;0,0706
977,00;0,0720
976,00;0,0738
975,00;0,0761
974,00;0,0787
973,00;0,0819
972,00;0,0853
971,00;0,0889
970,00;0,0924
969,00;0,0957
968,00;0,0983
967,00;0,1002
966,00;0,1009
965,00;0,1002
964,00;0,0982
963,00;0,0951
962,00;0,0911
961,00;0,0869
960,00;0,0829
959,00;0,0792
958,00;0,0761
957,00;0,0735
956,00;0,0715
955,00;0,0697
954,00;0,0683
953,00;0,0671
952,00;0,0662
951,00;0,0653
950,00;0,0647
949,00;0,0641
948,00;0,0637
947,00;0,0633
946,00;0,0629
945,00;0,0625
944,00;0,0621
943,00;0,0616
942,00;0,0613
941,00;0,0610
940,00;0,0607
939,00;0,0605
938,00;0,0603
937,00;0,0601
936,00;0,0599
935,00;0,0597
934,00;0,0596
933,00;0,0594
932,00;0,0593
931,00;0,0591
930,00;0,0591
929,00;0,0590
928,00;0,0589
927,00;0,0589
926,00;0,0589
925,00;0,0589
924,00;0,0589
923,00;0,0590
922,00;0,0590
921,00;0,0590
920,00;0,0590
919,00;0,0590
918,00;0,0590
917,00;0,0590
916,00;0,0591
915,00;0,0593
914,00;0,0594
913,00;0,0596
912,00;0,0598
911,00;0,0599
910,00;0,0600
909,00;0,0601
908,00;0,0602
907,00;0,0603
906,00;0,0603
905,00;0,0604
904,00;0,0604
903,00;0,0606
902,00;0,0609
901,00;0,0612
900,00;0,0614
899,00;0,0617
898,00;0,0619
897,00;0,0621
896,00;0,0623
895,00;0,0626
894,00;0,0630
893,00;0,0633
892,00;0,0635
891,00;0,0636
890,00;0,0637
889,00;0,0638
888,00;0,0638
887,00;0,0639
886,00;0,0639
885,00;0,0639
884,00;0,0640
883,00;0,0640
882,00;0,0641
881,00;0,0641
880,00;0,0642
879,00;0,0643
878,00;0,0643
877,00;0,0644
876,00;0,0644
875,00;0,0644
874,00;0,0644
873,00;0,0643
872,00;0,0643
871,00;0,0643
870,00;0,0643
869,00;0,0643
868,00;0,0642
867,00;0,0641
866,00;0,0641
865,00;0,0640
864,00;0,0640
863,00;0,0640
862,00;0,0640
861,00;0,0640
860,00;0,0639
859,00;0,0638
858,00;0,0637
857,00;0,0636
856,00;0,0635
855,00;0,0635
854,00;0,0635
853,00;0,0636
852,00;0,0636
851,00;0,0636
850,00;0,0635
849,00;0,0635
848,00;0,0635
847,00;0,0636
846,00;0,0637
845,00;0,0638
844,00;0,0638
843,00;0,0639
842,00;0,0639
841,00;0,0639
840,00;0,0640
839,00;0,0641
838,00;0,0642
837,00;0,0643
836,00;0,0644
835,00;0,0646
834,00;0,0647
833,00;0,0649
832,00;0,0650
831,00;0,0652
830,00;0,0654
829,00;0,0657
828,00;0,0659
827,00;0,0661
826,00;0,0663
825,00;0,0664
824,00;0,0666
823,00;0,0668
822,00;0,0671
821,00;0,0673
820,00;0,0674
819,00;0,0675
818,00;0,0676
817,00;0,0677
816,00;0,0679
815,00;0,0681
814,00;0,0682
813,00;0,0683
812,00;0,0684
811,00;0,0685
810,00;0,0686
809,00;0,0686
808,00;0,0686
807,00;0,0686
806,00;0,0686
805,00;0,0687
804,00;0,0689
803,00;0,0690
802,00;0,0691
801,00;0,0692
800,00;0,0693
799,00;0,0694
798,00;0,0695
797,00;0,0696
796,00;0,0697
795,00;0,0698
794,00;0,0698
793,00;0,0699
792,00;0,0699
791,00;0,0700
790,00;0,0702
789,00;0,0705
788,00;0,0708
787,00;0,0710
786,00;0,0712
785,00;0,0714
784,00;0,0717
783,00;0,0720
782,00;0,0724
781,00;0,0727
780,00;0,0730
779,00;0,0733
778,00;0,0736
777,00;0,0739
776,00;0,0742
775,00;0,0746
774,00;0,0749
773,00;0,0752
772,00;0,0756
771,00;0,0760
770,00;0,0765
769,00;0,0771
768,00;0,0776
767,00;0,0781
766,00;0,0785
765,00;0,0789
764,00;0,0795
763,00;0,0801
762,00;0,0808
761,00;0,0815
760,00;0,0821
759,00;0,0828
758,00;0,0835
757,00;0,0844
756,00;0,0854
755,00;0,0863
754,00;0,0872
753,00;0,0880
752,00;0,0888
751,00;0,0895
750,00;0,0902
749,00;0,0908
748,00;0,0914
747,00;0,0920
746,00;0,0927
745,00;0,0934
744,00;0,0941
743,00;0,0948
742,00;0,0956
741,00;0,0965
740,00;0,0975
739,00;0,0986
738,00;0,0999
737,00;0,1013
736,00;0,1029
735,00;0,1047
734,00;0,1066
733,00;0,1087
732,00;0,1110
731,00;0,1137
730,00;0,1166
729,00;0,1196
728,00;0,1228
727,00;0,1262
726,00;0,1297
725,00;0,1333
724,00;0,1367
723,00;0,1394
722,00;0,1413
721,00;0,1420
720,00;0,1415
719,00;0,1400
718,00;0,1378
717,00;0,1354
716,00;0,1330
715,00;0,1309
714,00;0,1291
713,00;0,1275
712,00;0,1261
711,00;0,1249
710,00;0,1239
709,00;0,1230
708,00;0,1223
707,00;0,1216
706,00;0,1211
705,00;0,1207
704,00;0,1205
703,00;0,1205
702,00;0,1206
701,00;0,1207
700,00;0,1209
699,00;0,1211
698,00;0,1213
697,00;0,1214
696,00;0,1214
695,00;0,1216
694,00;0,1219
693,00;0,1223
692,00;0,1228
691,00;0,1232
690,00;0,1236
689,00;0,1240
688,00;0,1244
687,00;0,1247
686,00;0,1250
685,00;0,1253
684,00;0,1256
683,00;0,1260
682,00;0,1264
681,00;0,1268
680,00;0,1273
679,00;0,1277
678,00;0,1281
677,00;0,1285
676,00;0,1288
675,00;0,1292
674,00;0,1296
673,00;0,1301
672,00;0,1306
671,00;0,1309
670,00;0,1311
669,00;0,1315
668,00;0,1325
667,00;0,1338
666,00;0,1350
665,00;0,1360
664,00;0,1370
663,00;0,1380
662,00;0,1391
661,00;0,1402
660,00;0,1414
659,00;0,1425
658,00;0,1437
657,00;0,1448
656,00;0,1460
655,00;0,1473
654,00;0,1487
653,00;0,1502
652,00;0,1519
651,00;0,1537
650,00;0,1555
649,00;0,1573
648,00;0,1590
647,00;0,1605
646,00;0,1619
645,00;0,1633
644,00;0,1649
643,00;0,1666
642,00;0,1685
641,00;0,1703
640,00;0,1722
639,00;0,1740
638,00;0,1757
637,00;0,1773
636,00;0,1790
635,00;0,1807
634,00;0,1823
633,00;0,1839
632,00;0,1854
631,00;0,1867
630,00;0,1878
629,00;0,1888
628,00;0,1898
627,00;0,1907
626,00;0,1915
625,00;0,1923
624,00;0,1930
623,00;0,1934
622,00;0,1938
621,00;0,1945
620,00;0,1954
619,00;0,1962
618,00;0,1968
617,00;0,1973
616,00;0,1980
615,00;0,1986
614,00;0,1992
613,00;0,2000
612,00;0,2009
611,00;0,2019
610,00;0,2028
609,00;0,2037
608,00;0,2048
607,00;0,2059
606,00;0,2070
605,00;0,2082
604,00;0,2096
603,00;0,2110
602,00;0,2121
601,00;0,2130
600,00;0,2138
599,00;0,2143
598,00;0,2148
597,00;0,2154
596,00;0,2161
595,00;0,2166
594,00;0,2168
593,00;0,2170
592,00;0,2172
591,00;0,2173
590,00;0,2171
589,00;0,2168
588,00;0,2164
587,00;0,2157
586,00;0,2146
585,00;0,2134
584,00;0,2125
583,00;0,2115
582,00;0,2102
581,00;0,2085
580,00;0,2066
579,00;0,2045
578,00;0,2021
577,00;0,1997
576,00;0,1972
575,00;0,1946
574,00;0,1920
573,00;0,1896
572,00;0,1873
571,00;0,1850
570,00;0,1826
569,00;0,1799
568,00;0,1772
567,00;0,1745
566,00;0,1717
565,00;0,1689
564,00;0,1664
563,00;0,1637
562,00;0,1610
561,00;0,1581
560,00;0,1552
559,00;0,1522
558,00;0,1493
557,00;0,1465
556,00;0,1440
555,00;0,1416
554,00;0,1392
553,00;0,1369
552,00;0,1347
551,00;0,1326
550,00;0,1306
549,00;0,1285
548,00;0,1265
547,00;0,1244
546,00;0,1224
545,00;0,1206
544,00;0,1189
543,00;0,1173
542,00;0,1156
541,00;0,1140
540,00;0,1129
539,00;0,1122
538,00;0,1117
537,00;0,1111
536,00;0,1102
535,00;0,1091
534,00;0,1080
533,00;0,1069
532,00;0,1061
531,00;0,1056
530,00;0,1052
529,00;0,1046
528,00;0,1039
527,00;0,1031
526,00;0,1026
525,00;0,1023
524,00;0,1023
523,00;0,1024
522,00;0,1025
521,00;0,1024
520,00;0,1020
519,00;0,1017
518,00;0,1016
517,00;0,1017
516,00;0,1020
515,00;0,1023
514,00;0,1027
513,00;0,1031
512,00;0,1036
511,00;0,1040
510,00;0,1044
509,00;0,1048
508,00;0,1052
507,00;0,1053
506,00;0,1051
505,00;0,1047
504,00;0,1044
503,00;0,1044
502,00;0,1046
501,00;0,1050
500,00;0,1053
499,00;0,1057
498,00;0,1059
497,00;0,1061
496,00;0,1061
495,00;0,1063
494,00;0,1067
493,00;0,1073
492,00;0,1082
491,00;0,1090
490,00;0,1098
489,00;0,1104
488,00;0,1108
487,00;0,1111
486,00;0,1116
485,00;0,1123
484,00;0,1133
483,00;0,1143
482,00;0,1153
481,00;0,1163
480,00;0,1172
479,00;0,1181
478,00;0,1189
477,00;0,1195
476,00;0,1202
475,00;0,1208
474,00;0,1214
473,00;0,1220
472,00;0,1227
471,00;0,1235
470,00;0,1243
469,00;0,1252
468,00;0,1260
467,00;0,1268
466,00;0,1276
465,00;0,1286
464,00;0,1298
463,00;0,1309
462,00;0,1320
461,00;0,1331
460,00;0,1342
459,00;0,1354
458,00;0,1368
457,00;0,1383
456,00;0,1396
455,00;0,1406
454,00;0,1414
453,00;0,1421
452,00;0,1430
451,00;0,1440
450,00;0,1447
449,00;0,1453
448,00;0,1454
447,00;0,1453
446,00;0,1449
445,00;0,1445
444,00;0,1440
443,00;0,1435
442,00;0,1433
441,00;0,1438
440,00;0,1449
439,00;0,1459
438,00;0,1466
437,00;0,1472
436,00;0,1481
435,00;0,1491
434,00;0,1496
433,00;0,1497
432,00;0,1495
431,00;0,1493
430,00;0,1493
429,00;0,1493
428,00;0,1493
427,00;0,1492
426,00;0,1492
425,00;0,1494
424,00;0,1494
423,00;0,1488
422,00;0,1481
421,00;0,1483
420,00;0,1503
419,00;0,1540
418,00;0,1584
417,00;0,1623
416,00;0,1650
415,00;0,1656
414,00;0,1637
413,00;0,1603
412,00;0,1572
411,00;0,1557
410,00;0,1562
409,00;0,1588
408,00;0,1629
407,00;0,1672
406,00;0,1705
405,00;0,1726
404,00;0,1738
403,00;0,1739
402,00;0,1730
401,00;0,1723
400,00;0,1727
