Создан как новый массив данных;Образец 009 полученный BalashovM Дата пятница, апреля 21 2023
cm-1;A
4000,00;0,0310
3999,00;0,0310
3998,00;0,0310
3997,00;0,0310
3996,00;0,0310
3995,00;0,0311
3994,00;0,0311
3993,00;0,0311
3992,00;0,0311
3991,00;0,0311
3990,00;0,0310
3989,00;0,0310
3988,00;0,0310
3987,00;0,0310
3986,00;0,0310
3985,00;0,0310
3984,00;0,0310
3983,00;0,0310
3982,00;0,0310
3981,00;0,0310
3980,00;0,0310
3979,00;0,0309
3978,00;0,0309
3977,00;0,0309
3976,00;0,0308
3975,00;0,0308
3974,00;0,0308
3973,00;0,0308
3972,00;0,0308
3971,00;0,0309
3970,00;0,0309
3969,00;0,0309
3968,00;0,0309
3967,00;0,0309
3966,00;0,0309
3965,00;0,0309
3964,00;0,0308
3963,00;0,0308
3962,00;0,0308
3961,00;0,0308
3960,00;0,0307
3959,00;0,0308
3958,00;0,0308
3957,00;0,0308
3956,00;0,0308
3955,00;0,0308
3954,00;0,0307
3953,00;0,0307
3952,00;0,0307
3951,00;0,0306
3950,00;0,0306
3949,00;0,0306
3948,00;0,0306
3947,00;0,0306
3946,00;0,0306
3945,00;0,0306
3944,00;0,0306
3943,00;0,0305
3942,00;0,0305
3941,00;0,0306
3940,00;0,0306
3939,00;0,0306
3938,00;0,0306
3937,00;0,0307
3936,00;0,0306
3935,00;0,0306
3934,00;0,0306
3933,00;0,0305
3932,00;0,0305
3931,00;0,0305
3930,00;0,0305
3929,00;0,0305
3928,00;0,0305
3927,00;0,0304
3926,00;0,0304
3925,00;0,0304
3924,00;0,0303
3923,00;0,0303
3922,00;0,0303
3921,00;0,0304
3920,00;0,0304
3919,00;0,0304
3918,00;0,0304
3917,00;0,0304
3916,00;0,0304
3915,00;0,0304
3914,00;0,0304
3913,00;0,0304
3912,00;0,0304
3911,00;0,0304
3910,00;0,0304
3909,00;0,0304
3908,00;0,0304
3907,00;0,0304
3906,00;0,0303
3905,00;0,0303
3904,00;0,0303
3903,00;0,0303
3902,00;0,0302
3901,00;0,0302
3900,00;0,0302
3899,00;0,0302
3898,00;0,0301
3897,00;0,0301
3896,00;0,0301
3895,00;0,0301
3894,00;0,0302
3893,00;0,0302
3892,00;0,0302
3891,00;0,0302
3890,00;0,0302
3889,00;0,0301
3888,00;0,0301
3887,00;0,0301
3886,00;0,0301
3885,00;0,0302
3884,00;0,0302
3883,00;0,0301
3882,00;0,0301
3881,00;0,0300
3880,00;0,0300
3879,00;0,0300
3878,00;0,0299
3877,00;0,0299
3876,00;0,0299
3875,00;0,0299
3874,00;0,0299
3873,00;0,0299
3872,00;0,0298
3871,00;0,0298
3870,00;0,0298
3869,00;0,0298
3868,00;0,0298
3867,00;0,0298
3866,00;0,0299
3865,00;0,0299
3864,00;0,0299
3863,00;0,0299
3862,00;0,0299
3861,00;0,0299
3860,00;0,0298
3859,00;0,0298
3858,00;0,0298
3857,00;0,0297
3856,00;0,0297
3855,00;0,0297
3854,00;0,0297
3853,00;0,0297
3852,00;0,0297
3851,00;0,0297
3850,00;0,0297
3849,00;0,0297
3848,00;0,0298
3847,00;0,0297
3846,00;0,0297
3845,00;0,0297
3844,00;0,0296
3843,00;0,0296
3842,00;0,0296
3841,00;0,0295
3840,00;0,0295
3839,00;0,0295
3838,00;0,0295
3837,00;0,0295
3836,00;0,0295
3835,00;0,0295
3834,00;0,0295
3833,00;0,0295
3832,00;0,0295
3831,00;0,0296
3830,00;0,0296
3829,00;0,0296
3828,00;0,0296
3827,00;0,0296
3826,00;0,0296
3825,00;0,0295
3824,00;0,0295
3823,00;0,0294
3822,00;0,0294
3821,00;0,0294
3820,00;0,0294
3819,00;0,0293
3818,00;0,0292
3817,00;0,0292
3816,00;0,0293
3815,00;0,0293
3814,00;0,0293
3813,00;0,0293
3812,00;0,0293
3811,00;0,0294
3810,00;0,0293
3809,00;0,0293
3808,00;0,0293
3807,00;0,0293
3806,00;0,0293
3805,00;0,0293
3804,00;0,0292
3803,00;0,0292
3802,00;0,0292
3801,00;0,0292
3800,00;0,0292
3799,00;0,0291
3798,00;0,0291
3797,00;0,0291
3796,00;0,0291
3795,00;0,0292
3794,00;0,0292
3793,00;0,0291
3792,00;0,0291
3791,00;0,0291
3790,00;0,0291
3789,00;0,0291
3788,00;0,0291
3787,00;0,0291
3786,00;0,0291
3785,00;0,0291
3784,00;0,0291
3783,00;0,0291
3782,00;0,0291
3781,00;0,0291
3780,00;0,0290
3779,00;0,0290
3778,00;0,0290
3777,00;0,0289
3776,00;0,0289
3775,00;0,0289
3774,00;0,0289
3773,00;0,0289
3772,00;0,0289
3771,00;0,0289
3770,00;0,0289
3769,00;0,0288
3768,00;0,0288
3767,00;0,0288
3766,00;0,0288
3765,00;0,0288
3764,00;0,0288
3763,00;0,0288
3762,00;0,0288
3761,00;0,0288
3760,00;0,0288
3759,00;0,0288
3758,00;0,0287
3757,00;0,0287
3756,00;0,0287
3755,00;0,0287
3754,00;0,0286
3753,00;0,0286
3752,00;0,0286
3751,00;0,0285
3750,00;0,0285
3749,00;0,0285
3748,00;0,0285
3747,00;0,0285
3746,00;0,0285
3745,00;0,0286
3744,00;0,0286
3743,00;0,0286
3742,00;0,0286
3741,00;0,0286
3740,00;0,0286
3739,00;0,0287
3738,00;0,0287
3737,00;0,0287
3736,00;0,0287
3735,00;0,0286
3734,00;0,0285
3733,00;0,0285
3732,00;0,0285
3731,00;0,0285
3730,00;0,0285
3729,00;0,0285
3728,00;0,0285
3727,00;0,0285
3726,00;0,0285
3725,00;0,0286
3724,00;0,0286
3723,00;0,0285
3722,00;0,0285
3721,00;0,0284
3720,00;0,0284
3719,00;0,0284
3718,00;0,0284
3717,00;0,0284
3716,00;0,0284
3715,00;0,0283
3714,00;0,0283
3713,00;0,0282
3712,00;0,0282
3711,00;0,0282
3710,00;0,0283
3709,00;0,0283
3708,00;0,0283
3707,00;0,0283
3706,00;0,0283
3705,00;0,0283
3704,00;0,0283
3703,00;0,0283
3702,00;0,0283
3701,00;0,0283
3700,00;0,0283
3699,00;0,0284
3698,00;0,0284
3697,00;0,0284
3696,00;0,0284
3695,00;0,0283
3694,00;0,0283
3693,00;0,0282
3692,00;0,0282
3691,00;0,0282
3690,00;0,0282
3689,00;0,0282
3688,00;0,0282
3687,00;0,0281
3686,00;0,0281
3685,00;0,0281
3684,00;0,0282
3683,00;0,0282
3682,00;0,0282
3681,00;0,0282
3680,00;0,0281
3679,00;0,0280
3678,00;0,0279
3677,00;0,0279
3676,00;0,0279
3675,00;0,0279
3674,00;0,0278
3673,00;0,0278
3672,00;0,0278
3671,00;0,0278
3670,00;0,0279
3669,00;0,0279
3668,00;0,0280
3667,00;0,0280
3666,00;0,0280
3665,00;0,0280
3664,00;0,0280
3663,00;0,0280
3662,00;0,0280
3661,00;0,0280
3660,00;0,0280
3659,00;0,0280
3658,00;0,0280
3657,00;0,0280
3656,00;0,0280
3655,00;0,0280
3654,00;0,0279
3653,00;0,0279
3652,00;0,0279
3651,00;0,0279
3650,00;0,0278
3649,00;0,0278
3648,00;0,0278
3647,00;0,0278
3646,00;0,0279
3645,00;0,0279
3644,00;0,0279
3643,00;0,0279
3642,00;0,0280
3641,00;0,0280
3640,00;0,0280
3639,00;0,0280
3638,00;0,0279
3637,00;0,0279
3636,00;0,0279
3635,00;0,0279
3634,00;0,0279
3633,00;0,0279
3632,00;0,0279
3631,00;0,0279
3630,00;0,0279
3629,00;0,0279
3628,00;0,0280
3627,00;0,0280
3626,00;0,0280
3625,00;0,0280
3624,00;0,0280
3623,00;0,0280
3622,00;0,0279
3621,00;0,0279
3620,00;0,0279
3619,00;0,0279
3618,00;0,0280
3617,00;0,0280
3616,00;0,0280
3615,00;0,0279
3614,00;0,0279
3613,00;0,0279
3612,00;0,0278
3611,00;0,0278
3610,00;0,0279
3609,00;0,0279
3608,00;0,0280
3607,00;0,0281
3606,00;0,0281
3605,00;0,0281
3604,00;0,0281
3603,00;0,0280
3602,00;0,0280
3601,00;0,0280
3600,00;0,0279
3599,00;0,0279
3598,00;0,0279
3597,00;0,0280
3596,00;0,0280
3595,00;0,0280
3594,00;0,0280
3593,00;0,0280
3592,00;0,0280
3591,00;0,0280
3590,00;0,0280
3589,00;0,0281
3588,00;0,0281
3587,00;0,0281
3586,00;0,0280
3585,00;0,0280
3584,00;0,0280
3583,00;0,0280
3582,00;0,0279
3581,00;0,0279
3580,00;0,0279
3579,00;0,0279
3578,00;0,0279
3577,00;0,0280
3576,00;0,0279
3575,00;0,0279
3574,00;0,0279
3573,00;0,0279
3572,00;0,0279
3571,00;0,0279
3570,00;0,0279
3569,00;0,0279
3568,00;0,0279
3567,00;0,0279
3566,00;0,0279
3565,00;0,0279
3564,00;0,0279
3563,00;0,0279
3562,00;0,0279
3561,00;0,0279
3560,00;0,0279
3559,00;0,0279
3558,00;0,0279
3557,00;0,0279
3556,00;0,0279
3555,00;0,0279
3554,00;0,0279
3553,00;0,0279
3552,00;0,0279
3551,00;0,0279
3550,00;0,0279
3549,00;0,0280
3548,00;0,0280
3547,00;0,0279
3546,00;0,0279
3545,00;0,0279
3544,00;0,0278
3543,00;0,0278
3542,00;0,0278
3541,00;0,0278
3540,00;0,0279
3539,00;0,0279
3538,00;0,0279
3537,00;0,0279
3536,00;0,0280
3535,00;0,0280
3534,00;0,0280
3533,00;0,0279
3532,00;0,0279
3531,00;0,0279
3530,00;0,0279
3529,00;0,0280
3528,00;0,0280
3527,00;0,0280
3526,00;0,0281
3525,00;0,0281
3524,00;0,0281
3523,00;0,0281
3522,00;0,0281
3521,00;0,0281
3520,00;0,0280
3519,00;0,0280
3518,00;0,0280
3517,00;0,0280
3516,00;0,0280
3515,00;0,0280
3514,00;0,0280
3513,00;0,0280
3512,00;0,0279
3511,00;0,0279
3510,00;0,0279
3509,00;0,0278
3508,00;0,0278
3507,00;0,0278
3506,00;0,0278
3505,00;0,0279
3504,00;0,0279
3503,00;0,0279
3502,00;0,0279
3501,00;0,0279
3500,00;0,0279
3499,00;0,0279
3498,00;0,0279
3497,00;0,0279
3496,00;0,0279
3495,00;0,0279
3494,00;0,0279
3493,00;0,0279
3492,00;0,0279
3491,00;0,0279
3490,00;0,0278
3489,00;0,0278
3488,00;0,0278
3487,00;0,0278
3486,00;0,0278
3485,00;0,0279
3484,00;0,0279
3483,00;0,0280
3482,00;0,0280
3481,00;0,0280
3480,00;0,0280
3479,00;0,0280
3478,00;0,0279
3477,00;0,0279
3476,00;0,0279
3475,00;0,0279
3474,00;0,0279
3473,00;0,0279
3472,00;0,0279
3471,00;0,0279
3470,00;0,0279
3469,00;0,0279
3468,00;0,0279
3467,00;0,0279
3466,00;0,0279
3465,00;0,0279
3464,00;0,0279
3463,00;0,0279
3462,00;0,0279
3461,00;0,0279
3460,00;0,0279
3459,00;0,0279
3458,00;0,0279
3457,00;0,0279
3456,00;0,0279
3455,00;0,0279
3454,00;0,0279
3453,00;0,0279
3452,00;0,0279
3451,00;0,0279
3450,00;0,0280
3449,00;0,0280
3448,00;0,0280
3447,00;0,0281
3446,00;0,0281
3445,00;0,0281
3444,00;0,0282
3443,00;0,0282
3442,00;0,0282
3441,00;0,0282
3440,00;0,0281
3439,00;0,0281
3438,00;0,0280
3437,00;0,0280
3436,00;0,0280
3435,00;0,0281
3434,00;0,0282
3433,00;0,0282
3432,00;0,0283
3431,00;0,0283
3430,00;0,0283
3429,00;0,0283
3428,00;0,0284
3427,00;0,0284
3426,00;0,0284
3425,00;0,0285
3424,00;0,0285
3423,00;0,0285
3422,00;0,0285
3421,00;0,0285
3420,00;0,0286
3419,00;0,0286
3418,00;0,0286
3417,00;0,0285
3416,00;0,0285
3415,00;0,0285
3414,00;0,0284
3413,00;0,0284
3412,00;0,0284
3411,00;0,0283
3410,00;0,0283
3409,00;0,0282
3408,00;0,0282
3407,00;0,0282
3406,00;0,0282
3405,00;0,0281
3404,00;0,0281
3403,00;0,0280
3402,00;0,0279
3401,00;0,0279
3400,00;0,0278
3399,00;0,0279
3398,00;0,0279
3397,00;0,0279
3396,00;0,0279
3395,00;0,0278
3394,00;0,0278
3393,00;0,0277
3392,00;0,0277
3391,00;0,0276
3390,00;0,0277
3389,00;0,0277
3388,00;0,0277
3387,00;0,0276
3386,00;0,0276
3385,00;0,0276
3384,00;0,0275
3383,00;0,0275
3382,00;0,0275
3381,00;0,0274
3380,00;0,0274
3379,00;0,0274
3378,00;0,0274
3377,00;0,0275
3376,00;0,0275
3375,00;0,0274
3374,00;0,0274
3373,00;0,0273
3372,00;0,0273
3371,00;0,0272
3370,00;0,0272
3369,00;0,0272
3368,00;0,0272
3367,00;0,0272
3366,00;0,0272
3365,00;0,0272
3364,00;0,0272
3363,00;0,0272
3362,00;0,0272
3361,00;0,0272
3360,00;0,0273
3359,00;0,0273
3358,00;0,0273
3357,00;0,0273
3356,00;0,0273
3355,00;0,0273
3354,00;0,0272
3353,00;0,0272
3352,00;0,0272
3351,00;0,0271
3350,00;0,0271
3349,00;0,0271
3348,00;0,0271
3347,00;0,0271
3346,00;0,0270
3345,00;0,0270
3344,00;0,0270
3343,00;0,0270
3342,00;0,0270
3341,00;0,0270
3340,00;0,0270
3339,00;0,0270
3338,00;0,0269
3337,00;0,0269
3336,00;0,0269
3335,00;0,0269
3334,00;0,0269
3333,00;0,0269
3332,00;0,0269
3331,00;0,0269
3330,00;0,0268
3329,00;0,0268
3328,00;0,0268
3327,00;0,0268
3326,00;0,0267
3325,00;0,0268
3324,00;0,0268
3323,00;0,0268
3322,00;0,0268
3321,00;0,0267
3320,00;0,0267
3319,00;0,0267
3318,00;0,0267
3317,00;0,0267
3316,00;0,0267
3315,00;0,0267
3314,00;0,0267
3313,00;0,0266
3312,00;0,0266
3311,00;0,0266
3310,00;0,0266
3309,00;0,0266
3308,00;0,0266
3307,00;0,0266
3306,00;0,0266
3305,00;0,0266
3304,00;0,0267
3303,00;0,0267
3302,00;0,0267
3301,00;0,0267
3300,00;0,0267
3299,00;0,0267
3298,00;0,0266
3297,00;0,0266
3296,00;0,0265
3295,00;0,0265
3294,00;0,0265
3293,00;0,0265
3292,00;0,0265
3291,00;0,0265
3290,00;0,0265
3289,00;0,0265
3288,00;0,0265
3287,00;0,0264
3286,00;0,0264
3285,00;0,0264
3284,00;0,0264
3283,00;0,0263
3282,00;0,0263
3281,00;0,0263
3280,00;0,0263
3279,00;0,0263
3278,00;0,0263
3277,00;0,0263
3276,00;0,0262
3275,00;0,0262
3274,00;0,0262
3273,00;0,0262
3272,00;0,0262
3271,00;0,0262
3270,00;0,0262
3269,00;0,0262
3268,00;0,0262
3267,00;0,0262
3266,00;0,0262
3265,00;0,0262
3264,00;0,0262
3263,00;0,0262
3262,00;0,0262
3261,00;0,0262
3260,00;0,0262
3259,00;0,0262
3258,00;0,0262
3257,00;0,0261
3256,00;0,0261
3255,00;0,0261
3254,00;0,0261
3253,00;0,0261
3252,00;0,0261
3251,00;0,0261
3250,00;0,0261
3249,00;0,0261
3248,00;0,0260
3247,00;0,0260
3246,00;0,0260
3245,00;0,0260
3244,00;0,0260
3243,00;0,0259
3242,00;0,0259
3241,00;0,0259
3240,00;0,0259
3239,00;0,0259
3238,00;0,0259
3237,00;0,0259
3236,00;0,0259
3235,00;0,0259
3234,00;0,0260
3233,00;0,0260
3232,00;0,0260
3231,00;0,0259
3230,00;0,0259
3229,00;0,0259
3228,00;0,0259
3227,00;0,0259
3226,00;0,0259
3225,00;0,0259
3224,00;0,0258
3223,00;0,0258
3222,00;0,0258
3221,00;0,0258
3220,00;0,0258
3219,00;0,0258
3218,00;0,0258
3217,00;0,0258
3216,00;0,0259
3215,00;0,0259
3214,00;0,0259
3213,00;0,0258
3212,00;0,0258
3211,00;0,0258
3210,00;0,0258
3209,00;0,0258
3208,00;0,0258
3207,00;0,0258
3206,00;0,0258
3205,00;0,0259
3204,00;0,0259
3203,00;0,0259
3202,00;0,0259
3201,00;0,0259
3200,00;0,0259
3199,00;0,0259
3198,00;0,0259
3197,00;0,0259
3196,00;0,0258
3195,00;0,0258
3194,00;0,0258
3193,00;0,0258
3192,00;0,0258
3191,00;0,0258
3190,00;0,0258
3189,00;0,0257
3188,00;0,0257
3187,00;0,0257
3186,00;0,0257
3185,00;0,0257
3184,00;0,0257
3183,00;0,0257
3182,00;0,0257
3181,00;0,0257
3180,00;0,0257
3179,00;0,0257
3178,00;0,0257
3177,00;0,0257
3176,00;0,0257
3175,00;0,0256
3174,00;0,0256
3173,00;0,0256
3172,00;0,0256
3171,00;0,0256
3170,00;0,0256
3169,00;0,0256
3168,00;0,0256
3167,00;0,0256
3166,00;0,0256
3165,00;0,0256
3164,00;0,0256
3163,00;0,0256
3162,00;0,0255
3161,00;0,0255
3160,00;0,0255
3159,00;0,0255
3158,00;0,0255
3157,00;0,0254
3156,00;0,0254
3155,00;0,0254
3154,00;0,0254
3153,00;0,0254
3152,00;0,0254
3151,00;0,0254
3150,00;0,0254
3149,00;0,0254
3148,00;0,0253
3147,00;0,0253
3146,00;0,0253
3145,00;0,0253
3144,00;0,0253
3143,00;0,0253
3142,00;0,0253
3141,00;0,0253
3140,00;0,0253
3139,00;0,0253
3138,00;0,0253
3137,00;0,0253
3136,00;0,0253
3135,00;0,0253
3134,00;0,0252
3133,00;0,0253
3132,00;0,0253
3131,00;0,0252
3130,00;0,0252
3129,00;0,0252
3128,00;0,0252
3127,00;0,0252
3126,00;0,0252
3125,00;0,0252
3124,00;0,0252
3123,00;0,0252
3122,00;0,0252
3121,00;0,0251
3120,00;0,0251
3119,00;0,0252
3118,00;0,0252
3117,00;0,0252
3116,00;0,0253
3115,00;0,0253
3114,00;0,0252
3113,00;0,0252
3112,00;0,0251
3111,00;0,0251
3110,00;0,0251
3109,00;0,0251
3108,00;0,0251
3107,00;0,0252
3106,00;0,0252
3105,00;0,0252
3104,00;0,0252
3103,00;0,0252
3102,00;0,0251
3101,00;0,0251
3100,00;0,0251
3099,00;0,0251
3098,00;0,0252
3097,00;0,0252
3096,00;0,0252
3095,00;0,0252
3094,00;0,0252
3093,00;0,0252
3092,00;0,0252
3091,00;0,0252
3090,00;0,0252
3089,00;0,0253
3088,00;0,0253
3087,00;0,0253
3086,00;0,0253
3085,00;0,0253
3084,00;0,0253
3083,00;0,0253
3082,00;0,0253
3081,00;0,0253
3080,00;0,0253
3079,00;0,0254
3078,00;0,0254
3077,00;0,0255
3076,00;0,0256
3075,00;0,0256
3074,00;0,0257
3073,00;0,0258
3072,00;0,0258
3071,00;0,0258
3070,00;0,0258
3069,00;0,0259
3068,00;0,0259
3067,00;0,0259
3066,00;0,0259
3065,00;0,0259
3064,00;0,0259
3063,00;0,0259
3062,00;0,0259
3061,00;0,0259
3060,00;0,0260
3059,00;0,0260
3058,00;0,0260
3057,00;0,0259
3056,00;0,0259
3055,00;0,0260
3054,00;0,0260
3053,00;0,0261
3052,00;0,0261
3051,00;0,0262
3050,00;0,0262
3049,00;0,0262
3048,00;0,0262
3047,00;0,0262
3046,00;0,0263
3045,00;0,0264
3044,00;0,0264
3043,00;0,0265
3042,00;0,0266
3041,00;0,0267
3040,00;0,0268
3039,00;0,0270
3038,00;0,0271
3037,00;0,0272
3036,00;0,0273
3035,00;0,0274
3034,00;0,0276
3033,00;0,0277
3032,00;0,0278
3031,00;0,0280
3030,00;0,0281
3029,00;0,0283
3028,00;0,0285
3027,00;0,0287
3026,00;0,0290
3025,00;0,0293
3024,00;0,0296
3023,00;0,0299
3022,00;0,0303
3021,00;0,0307
3020,00;0,0311
3019,00;0,0315
3018,00;0,0320
3017,00;0,0326
3016,00;0,0331
3015,00;0,0338
3014,00;0,0345
3013,00;0,0352
3012,00;0,0359
3011,00;0,0367
3010,00;0,0374
3009,00;0,0379
3008,00;0,0384
3007,00;0,0388
3006,00;0,0390
3005,00;0,0391
3004,00;0,0391
3003,00;0,0389
3002,00;0,0386
3001,00;0,0382
3000,00;0,0377
2999,00;0,0371
2998,00;0,0366
2997,00;0,0360
2996,00;0,0355
2995,00;0,0350
2994,00;0,0347
2993,00;0,0345
2992,00;0,0344
2991,00;0,0343
2990,00;0,0343
2989,00;0,0343
2988,00;0,0344
2987,00;0,0346
2986,00;0,0349
2985,00;0,0352
2984,00;0,0356
2983,00;0,0360
2982,00;0,0366
2981,00;0,0372
2980,00;0,0379
2979,00;0,0387
2978,00;0,0396
2977,00;0,0407
2976,00;0,0419
2975,00;0,0433
2974,00;0,0449
2973,00;0,0467
2972,00;0,0487
2971,00;0,0510
2970,00;0,0535
2969,00;0,0563
2968,00;0,0593
2967,00;0,0626
2966,00;0,0660
2965,00;0,0695
2964,00;0,0730
2963,00;0,0766
2962,00;0,0801
2961,00;0,0835
2960,00;0,0867
2959,00;0,0896
2958,00;0,0922
2957,00;0,0945
2956,00;0,0964
2955,00;0,0980
2954,00;0,0991
2953,00;0,0999
2952,00;0,1004
2951,00;0,1009
2950,00;0,1015
2949,00;0,1024
2948,00;0,1037
2947,00;0,1057
2946,00;0,1082
2945,00;0,1114
2944,00;0,1153
2943,00;0,1198
2942,00;0,1249
2941,00;0,1307
2940,00;0,1371
2939,00;0,1441
2938,00;0,1517
2937,00;0,1599
2936,00;0,1686
2935,00;0,1777
2934,00;0,1872
2933,00;0,1971
2932,00;0,2072
2931,00;0,2174
2930,00;0,2277
2929,00;0,2378
2928,00;0,2476
2927,00;0,2568
2926,00;0,2652
2925,00;0,2723
2924,00;0,2779
2923,00;0,2816
2922,00;0,2832
2921,00;0,2826
2920,00;0,2798
2919,00;0,2750
2918,00;0,2687
2917,00;0,2610
2916,00;0,2524
2915,00;0,2433
2914,00;0,2341
2913,00;0,2250
2912,00;0,2163
2911,00;0,2082
2910,00;0,2006
2909,00;0,1936
2908,00;0,1872
2907,00;0,1813
2906,00;0,1759
2905,00;0,1708
2904,00;0,1660
2903,00;0,1615
2902,00;0,1573
2901,00;0,1533
2900,00;0,1494
2899,00;0,1457
2898,00;0,1421
2897,00;0,1387
2896,00;0,1353
2895,00;0,1320
2894,00;0,1287
2893,00;0,1254
2892,00;0,1221
2891,00;0,1189
2890,00;0,1158
2889,00;0,1128
2888,00;0,1099
2887,00;0,1071
2886,00;0,1045
2885,00;0,1021
2884,00;0,0999
2883,00;0,0980
2882,00;0,0964
2881,00;0,0951
2880,00;0,0943
2879,00;0,0940
2878,00;0,0943
2877,00;0,0950
2876,00;0,0963
2875,00;0,0979
2874,00;0,0996
2873,00;0,1013
2872,00;0,1026
2871,00;0,1036
2870,00;0,1044
2869,00;0,1053
2868,00;0,1066
2867,00;0,1086
2866,00;0,1116
2865,00;0,1156
2864,00;0,1208
2863,00;0,1273
2862,00;0,1349
2861,00;0,1437
2860,00;0,1534
2859,00;0,1638
2858,00;0,1744
2857,00;0,1849
2856,00;0,1945
2855,00;0,2026
2854,00;0,2085
2853,00;0,2116
2852,00;0,2117
2851,00;0,2086
2850,00;0,2027
2849,00;0,1945
2848,00;0,1845
2847,00;0,1733
2846,00;0,1617
2845,00;0,1502
2844,00;0,1392
2843,00;0,1291
2842,00;0,1199
2841,00;0,1117
2840,00;0,1045
2839,00;0,0982
2838,00;0,0926
2837,00;0,0878
2836,00;0,0835
2835,00;0,0797
2834,00;0,0763
2833,00;0,0732
2832,00;0,0704
2831,00;0,0678
2830,00;0,0653
2829,00;0,0630
2828,00;0,0609
2827,00;0,0590
2826,00;0,0573
2825,00;0,0556
2824,00;0,0542
2823,00;0,0528
2822,00;0,0516
2821,00;0,0505
2820,00;0,0494
2819,00;0,0484
2818,00;0,0476
2817,00;0,0467
2816,00;0,0460
2815,00;0,0453
2814,00;0,0447
2813,00;0,0440
2812,00;0,0434
2811,00;0,0429
2810,00;0,0424
2809,00;0,0420
2808,00;0,0416
2807,00;0,0413
2806,00;0,0410
2805,00;0,0406
2804,00;0,0403
2803,00;0,0399
2802,00;0,0395
2801,00;0,0392
2800,00;0,0388
2799,00;0,0385
2798,00;0,0382
2797,00;0,0379
2796,00;0,0376
2795,00;0,0373
2794,00;0,0370
2793,00;0,0367
2792,00;0,0364
2791,00;0,0362
2790,00;0,0360
2789,00;0,0357
2788,00;0,0355
2787,00;0,0352
2786,00;0,0350
2785,00;0,0347
2784,00;0,0345
2783,00;0,0343
2782,00;0,0341
2781,00;0,0339
2780,00;0,0338
2779,00;0,0336
2778,00;0,0334
2777,00;0,0332
2776,00;0,0331
2775,00;0,0329
2774,00;0,0328
2773,00;0,0326
2772,00;0,0325
2771,00;0,0324
2770,00;0,0322
2769,00;0,0322
2768,00;0,0321
2767,00;0,0320
2766,00;0,0319
2765,00;0,0318
2764,00;0,0317
2763,00;0,0316
2762,00;0,0316
2761,00;0,0315
2760,00;0,0314
2759,00;0,0314
2758,00;0,0313
2757,00;0,0313
2756,00;0,0312
2755,00;0,0312
2754,00;0,0311
2753,00;0,0311
2752,00;0,0310
2751,00;0,0310
2750,00;0,0309
2749,00;0,0308
2748,00;0,0308
2747,00;0,0308
2746,00;0,0307
2745,00;0,0307
2744,00;0,0307
2743,00;0,0307
2742,00;0,0306
2741,00;0,0306
2740,00;0,0306
2739,00;0,0305
2738,00;0,0305
2737,00;0,0305
2736,00;0,0306
2735,00;0,0306
2734,00;0,0306
2733,00;0,0306
2732,00;0,0306
2731,00;0,0306
2730,00;0,0305
2729,00;0,0305
2728,00;0,0304
2727,00;0,0304
2726,00;0,0303
2725,00;0,0302
2724,00;0,0302
2723,00;0,0301
2722,00;0,0301
2721,00;0,0300
2720,00;0,0300
2719,00;0,0299
2718,00;0,0299
2717,00;0,0298
2716,00;0,0298
2715,00;0,0297
2714,00;0,0297
2713,00;0,0296
2712,00;0,0296
2711,00;0,0296
2710,00;0,0295
2709,00;0,0295
2708,00;0,0294
2707,00;0,0294
2706,00;0,0294
2705,00;0,0293
2704,00;0,0293
2703,00;0,0293
2702,00;0,0293
2701,00;0,0292
2700,00;0,0292
2699,00;0,0292
2698,00;0,0292
2697,00;0,0293
2696,00;0,0293
2695,00;0,0293
2694,00;0,0293
2693,00;0,0293
2692,00;0,0294
2691,00;0,0294
2690,00;0,0295
2689,00;0,0295
2688,00;0,0295
2687,00;0,0295
2686,00;0,0295
2685,00;0,0295
2684,00;0,0295
2683,00;0,0295
2682,00;0,0295
2681,00;0,0295
2680,00;0,0295
2679,00;0,0295
2678,00;0,0295
2677,00;0,0295
2676,00;0,0295
2675,00;0,0295
2674,00;0,0294
2673,00;0,0294
2672,00;0,0293
2671,00;0,0293
2670,00;0,0293
2669,00;0,0293
2668,00;0,0293
2667,00;0,0292
2666,00;0,0292
2665,00;0,0291
2664,00;0,0290
2663,00;0,0289
2662,00;0,0289
2661,00;0,0288
2660,00;0,0287
2659,00;0,0286
2658,00;0,0285
2657,00;0,0285
2656,00;0,0284
2655,00;0,0284
2654,00;0,0283
2653,00;0,0282
2652,00;0,0282
2651,00;0,0281
2650,00;0,0280
2649,00;0,0279
2648,00;0,0279
2647,00;0,0278
2646,00;0,0278
2645,00;0,0277
2644,00;0,0277
2643,00;0,0276
2642,00;0,0275
2641,00;0,0275
2640,00;0,0274
2639,00;0,0274
2638,00;0,0274
2637,00;0,0273
2636,00;0,0273
2635,00;0,0273
2634,00;0,0272
2633,00;0,0272
2632,00;0,0271
2631,00;0,0271
2630,00;0,0270
2629,00;0,0270
2628,00;0,0269
2627,00;0,0269
2626,00;0,0268
2625,00;0,0268
2624,00;0,0267
2623,00;0,0267
2622,00;0,0266
2621,00;0,0266
2620,00;0,0266
2619,00;0,0265
2618,00;0,0264
2617,00;0,0264
2616,00;0,0264
2615,00;0,0264
2614,00;0,0263
2613,00;0,0263
2612,00;0,0263
2611,00;0,0262
2610,00;0,0262
2609,00;0,0261
2608,00;0,0261
2607,00;0,0261
2606,00;0,0261
2605,00;0,0260
2604,00;0,0260
2603,00;0,0259
2602,00;0,0258
2601,00;0,0258
2600,00;0,0257
2599,00;0,0257
2598,00;0,0258
2597,00;0,0258
2596,00;0,0258
2595,00;0,0258
2594,00;0,0257
2593,00;0,0256
2592,00;0,0256
2591,00;0,0255
2590,00;0,0255
2589,00;0,0255
2588,00;0,0255
2587,00;0,0255
2586,00;0,0254
2585,00;0,0254
2584,00;0,0253
2583,00;0,0252
2582,00;0,0252
2581,00;0,0252
2580,00;0,0252
2579,00;0,0252
2578,00;0,0252
2577,00;0,0252
2576,00;0,0251
2575,00;0,0251
2574,00;0,0251
2573,00;0,0250
2572,00;0,0250
2571,00;0,0249
2570,00;0,0248
2569,00;0,0249
2568,00;0,0249
2567,00;0,0249
2566,00;0,0249
2565,00;0,0248
2564,00;0,0248
2563,00;0,0247
2562,00;0,0247
2561,00;0,0246
2560,00;0,0246
2559,00;0,0246
2558,00;0,0246
2557,00;0,0246
2556,00;0,0245
2555,00;0,0246
2554,00;0,0246
2553,00;0,0246
2552,00;0,0246
2551,00;0,0246
2550,00;0,0246
2549,00;0,0246
2548,00;0,0245
2547,00;0,0245
2546,00;0,0244
2545,00;0,0244
2544,00;0,0244
2543,00;0,0244
2542,00;0,0243
2541,00;0,0243
2540,00;0,0243
2539,00;0,0243
2538,00;0,0243
2537,00;0,0243
2536,00;0,0243
2535,00;0,0242
2534,00;0,0242
2533,00;0,0241
2532,00;0,0241
2531,00;0,0241
2530,00;0,0240
2529,00;0,0240
2528,00;0,0240
2527,00;0,0240
2526,00;0,0240
2525,00;0,0240
2524,00;0,0240
2523,00;0,0240
2522,00;0,0240
2521,00;0,0240
2520,00;0,0240
2519,00;0,0239
2518,00;0,0239
2517,00;0,0239
2516,00;0,0239
2515,00;0,0239
2514,00;0,0239
2513,00;0,0239
2512,00;0,0239
2511,00;0,0238
2510,00;0,0238
2509,00;0,0237
2508,00;0,0237
2507,00;0,0237
2506,00;0,0236
2505,00;0,0236
2504,00;0,0236
2503,00;0,0236
2502,00;0,0235
2501,00;0,0235
2500,00;0,0236
2499,00;0,0236
2498,00;0,0237
2497,00;0,0237
2496,00;0,0237
2495,00;0,0237
2494,00;0,0237
2493,00;0,0236
2492,00;0,0236
2491,00;0,0236
2490,00;0,0236
2489,00;0,0235
2488,00;0,0235
2487,00;0,0234
2486,00;0,0234
2485,00;0,0234
2484,00;0,0234
2483,00;0,0234
2482,00;0,0234
2481,00;0,0234
2480,00;0,0234
2479,00;0,0233
2478,00;0,0233
2477,00;0,0233
2476,00;0,0233
2475,00;0,0232
2474,00;0,0232
2473,00;0,0232
2472,00;0,0232
2471,00;0,0232
2470,00;0,0232
2469,00;0,0232
2468,00;0,0232
2467,00;0,0232
2466,00;0,0231
2465,00;0,0231
2464,00;0,0230
2463,00;0,0230
2462,00;0,0231
2461,00;0,0231
2460,00;0,0232
2459,00;0,0232
2458,00;0,0231
2457,00;0,0230
2456,00;0,0230
2455,00;0,0229
2454,00;0,0229
2453,00;0,0230
2452,00;0,0230
2451,00;0,0230
2450,00;0,0229
2449,00;0,0229
2448,00;0,0229
2447,00;0,0229
2446,00;0,0229
2445,00;0,0229
2444,00;0,0229
2443,00;0,0229
2442,00;0,0229
2441,00;0,0229
2440,00;0,0230
2439,00;0,0230
2438,00;0,0229
2437,00;0,0229
2436,00;0,0228
2435,00;0,0228
2434,00;0,0229
2433,00;0,0230
2432,00;0,0230
2431,00;0,0230
2430,00;0,0230
2429,00;0,0230
2428,00;0,0230
2427,00;0,0230
2426,00;0,0230
2425,00;0,0230
2424,00;0,0229
2423,00;0,0229
2422,00;0,0228
2421,00;0,0228
2420,00;0,0228
2419,00;0,0228
2418,00;0,0228
2417,00;0,0228
2416,00;0,0228
2415,00;0,0228
2414,00;0,0228
2413,00;0,0228
2412,00;0,0228
2411,00;0,0228
2410,00;0,0227
2409,00;0,0227
2408,00;0,0227
2407,00;0,0227
2406,00;0,0228
2405,00;0,0228
2404,00;0,0228
2403,00;0,0228
2402,00;0,0227
2401,00;0,0228
2400,00;0,0228
2399,00;0,0228
2398,00;0,0228
2397,00;0,0228
2396,00;0,0228
2395,00;0,0227
2394,00;0,0227
2393,00;0,0227
2392,00;0,0228
2391,00;0,0228
2390,00;0,0228
2389,00;0,0228
2388,00;0,0228
2387,00;0,0228
2386,00;0,0228
2385,00;0,0228
2384,00;0,0228
2383,00;0,0228
2382,00;0,0228
2381,00;0,0228
2380,00;0,0228
2379,00;0,0228
2378,00;0,0228
2377,00;0,0228
2376,00;0,0228
2375,00;0,0228
2374,00;0,0228
2373,00;0,0228
2372,00;0,0228
2371,00;0,0229
2370,00;0,0229
2369,00;0,0228
2368,00;0,0228
2367,00;0,0228
2366,00;0,0228
2365,00;0,0228
2364,00;0,0227
2363,00;0,0228
2362,00;0,0228
2361,00;0,0228
2360,00;0,0229
2359,00;0,0229
2358,00;0,0229
2357,00;0,0228
2356,00;0,0227
2355,00;0,0227
2354,00;0,0227
2353,00;0,0227
2352,00;0,0227
2351,00;0,0227
2350,00;0,0227
2349,00;0,0227
2348,00;0,0227
2347,00;0,0227
2346,00;0,0228
2345,00;0,0229
2344,00;0,0229
2343,00;0,0228
2342,00;0,0227
2341,00;0,0226
2340,00;0,0226
2339,00;0,0226
2338,00;0,0226
2337,00;0,0226
2336,00;0,0226
2335,00;0,0226
2334,00;0,0226
2333,00;0,0227
2332,00;0,0227
2331,00;0,0227
2330,00;0,0227
2329,00;0,0226
2328,00;0,0225
2327,00;0,0224
2326,00;0,0224
2325,00;0,0224
2324,00;0,0224
2323,00;0,0224
2322,00;0,0224
2321,00;0,0223
2320,00;0,0223
2319,00;0,0222
2318,00;0,0222
2317,00;0,0222
2316,00;0,0222
2315,00;0,0222
2314,00;0,0222
2313,00;0,0222
2312,00;0,0221
2311,00;0,0221
2310,00;0,0221
2309,00;0,0221
2308,00;0,0221
2307,00;0,0221
2306,00;0,0220
2305,00;0,0220
2304,00;0,0220
2303,00;0,0220
2302,00;0,0220
2301,00;0,0220
2300,00;0,0220
2299,00;0,0220
2298,00;0,0220
2297,00;0,0219
2296,00;0,0219
2295,00;0,0218
2294,00;0,0217
2293,00;0,0217
2292,00;0,0216
2291,00;0,0215
2290,00;0,0215
2289,00;0,0215
2288,00;0,0216
2287,00;0,0216
2286,00;0,0216
2285,00;0,0216
2284,00;0,0215
2283,00;0,0215
2282,00;0,0215
2281,00;0,0215
2280,00;0,0216
2279,00;0,0216
2278,00;0,0217
2277,00;0,0216
2276,00;0,0216
2275,00;0,0215
2274,00;0,0215
2273,00;0,0215
2272,00;0,0215
2271,00;0,0216
2270,00;0,0217
2269,00;0,0217
2268,00;0,0216
2267,00;0,0214
2266,00;0,0214
2265,00;0,0215
2264,00;0,0216
2263,00;0,0217
2262,00;0,0217
2261,00;0,0216
2260,00;0,0215
2259,00;0,0214
2258,00;0,0213
2257,00;0,0214
2256,00;0,0214
2255,00;0,0214
2254,00;0,0213
2253,00;0,0213
2252,00;0,0213
2251,00;0,0212
2250,00;0,0212
2249,00;0,0213
2248,00;0,0213
2247,00;0,0212
2246,00;0,0211
2245,00;0,0211
2244,00;0,0211
2243,00;0,0211
2242,00;0,0211
2241,00;0,0211
2240,00;0,0210
2239,00;0,0209
2238,00;0,0208
2237,00;0,0207
2236,00;0,0206
2235,00;0,0206
2234,00;0,0206
2233,00;0,0207
2232,00;0,0209
2231,00;0,0210
2230,00;0,0210
2229,00;0,0210
2228,00;0,0209
2227,00;0,0208
2226,00;0,0208
2225,00;0,0209
2224,00;0,0211
2223,00;0,0212
2222,00;0,0212
2221,00;0,0211
2220,00;0,0211
2219,00;0,0211
2218,00;0,0211
2217,00;0,0211
2216,00;0,0210
2215,00;0,0208
2214,00;0,0207
2213,00;0,0206
2212,00;0,0206
2211,00;0,0207
2210,00;0,0207
2209,00;0,0208
2208,00;0,0209
2207,00;0,0210
2206,00;0,0210
2205,00;0,0210
2204,00;0,0210
2203,00;0,0210
2202,00;0,0209
2201,00;0,0207
2200,00;0,0206
2199,00;0,0206
2198,00;0,0205
2197,00;0,0205
2196,00;0,0205
2195,00;0,0205
2194,00;0,0207
2193,00;0,0210
2192,00;0,0212
2191,00;0,0213
2190,00;0,0212
2189,00;0,0210
2188,00;0,0208
2187,00;0,0206
2186,00;0,0204
2185,00;0,0203
2184,00;0,0202
2183,00;0,0202
2182,00;0,0203
2181,00;0,0203
2180,00;0,0204
2179,00;0,0204
2178,00;0,0204
2177,00;0,0205
2176,00;0,0204
2175,00;0,0204
2174,00;0,0203
2173,00;0,0203
2172,00;0,0203
2171,00;0,0204
2170,00;0,0204
2169,00;0,0203
2168,00;0,0202
2167,00;0,0201
2166,00;0,0199
2165,00;0,0197
2164,00;0,0196
2163,00;0,0195
2162,00;0,0195
2161,00;0,0195
2160,00;0,0197
2159,00;0,0200
2158,00;0,0203
2157,00;0,0203
2156,00;0,0201
2155,00;0,0200
2154,00;0,0200
2153,00;0,0201
2152,00;0,0203
2151,00;0,0204
2150,00;0,0204
2149,00;0,0203
2148,00;0,0203
2147,00;0,0203
2146,00;0,0202
2145,00;0,0202
2144,00;0,0203
2143,00;0,0203
2142,00;0,0203
2141,00;0,0203
2140,00;0,0202
2139,00;0,0200
2138,00;0,0200
2137,00;0,0200
2136,00;0,0201
2135,00;0,0201
2134,00;0,0202
2133,00;0,0202
2132,00;0,0201
2131,00;0,0200
2130,00;0,0200
2129,00;0,0200
2128,00;0,0201
2127,00;0,0201
2126,00;0,0201
2125,00;0,0200
2124,00;0,0199
2123,00;0,0199
2122,00;0,0199
2121,00;0,0200
2120,00;0,0201
2119,00;0,0201
2118,00;0,0201
2117,00;0,0200
2116,00;0,0200
2115,00;0,0199
2114,00;0,0198
2113,00;0,0198
2112,00;0,0197
2111,00;0,0197
2110,00;0,0197
2109,00;0,0198
2108,00;0,0199
2107,00;0,0201
2106,00;0,0201
2105,00;0,0201
2104,00;0,0200
2103,00;0,0200
2102,00;0,0200
2101,00;0,0201
2100,00;0,0201
2099,00;0,0201
2098,00;0,0201
2097,00;0,0200
2096,00;0,0199
2095,00;0,0199
2094,00;0,0200
2093,00;0,0200
2092,00;0,0201
2091,00;0,0200
2090,00;0,0200
2089,00;0,0201
2088,00;0,0200
2087,00;0,0199
2086,00;0,0198
2085,00;0,0197
2084,00;0,0198
2083,00;0,0199
2082,00;0,0200
2081,00;0,0200
2080,00;0,0200
2079,00;0,0200
2078,00;0,0199
2077,00;0,0199
2076,00;0,0200
2075,00;0,0200
2074,00;0,0199
2073,00;0,0198
2072,00;0,0197
2071,00;0,0197
2070,00;0,0197
2069,00;0,0198
2068,00;0,0199
2067,00;0,0199
2066,00;0,0199
2065,00;0,0199
2064,00;0,0198
2063,00;0,0198
2062,00;0,0198
2061,00;0,0198
2060,00;0,0199
2059,00;0,0198
2058,00;0,0198
2057,00;0,0197
2056,00;0,0197
2055,00;0,0198
2054,00;0,0198
2053,00;0,0199
2052,00;0,0199
2051,00;0,0197
2050,00;0,0195
2049,00;0,0194
2048,00;0,0195
2047,00;0,0197
2046,00;0,0199
2045,00;0,0200
2044,00;0,0199
2043,00;0,0196
2042,00;0,0194
2041,00;0,0193
2040,00;0,0194
2039,00;0,0195
2038,00;0,0196
2037,00;0,0196
2036,00;0,0195
2035,00;0,0194
2034,00;0,0194
2033,00;0,0194
2032,00;0,0194
2031,00;0,0193
2030,00;0,0191
2029,00;0,0189
2028,00;0,0189
2027,00;0,0190
2026,00;0,0192
2025,00;0,0195
2024,00;0,0197
2023,00;0,0197
2022,00;0,0197
2021,00;0,0196
2020,00;0,0194
2019,00;0,0191
2018,00;0,0190
2017,00;0,0190
2016,00;0,0191
2015,00;0,0191
2014,00;0,0190
2013,00;0,0188
2012,00;0,0187
2011,00;0,0188
2010,00;0,0190
2009,00;0,0192
2008,00;0,0193
2007,00;0,0193
2006,00;0,0192
2005,00;0,0191
2004,00;0,0191
2003,00;0,0190
2002,00;0,0189
2001,00;0,0190
2000,00;0,0190
1999,00;0,0191
1998,00;0,0191
1997,00;0,0191
1996,00;0,0191
1995,00;0,0190
1994,00;0,0188
1993,00;0,0186
1992,00;0,0186
1991,00;0,0188
1990,00;0,0190
1989,00;0,0192
1988,00;0,0192
1987,00;0,0191
1986,00;0,0190
1985,00;0,0188
1984,00;0,0187
1983,00;0,0185
1982,00;0,0184
1981,00;0,0184
1980,00;0,0185
1979,00;0,0185
1978,00;0,0184
1977,00;0,0183
1976,00;0,0184
1975,00;0,0185
1974,00;0,0186
1973,00;0,0186
1972,00;0,0187
1971,00;0,0188
1970,00;0,0188
1969,00;0,0189
1968,00;0,0190
1967,00;0,0190
1966,00;0,0190
1965,00;0,0190
1964,00;0,0190
1963,00;0,0189
1962,00;0,0188
1961,00;0,0188
1960,00;0,0188
1959,00;0,0187
1958,00;0,0186
1957,00;0,0185
1956,00;0,0183
1955,00;0,0182
1954,00;0,0182
1953,00;0,0184
1952,00;0,0186
1951,00;0,0187
1950,00;0,0187
1949,00;0,0187
1948,00;0,0187
1947,00;0,0187
1946,00;0,0186
1945,00;0,0185
1944,00;0,0185
1943,00;0,0185
1942,00;0,0185
1941,00;0,0186
1940,00;0,0186
1939,00;0,0187
1938,00;0,0186
1937,00;0,0185
1936,00;0,0184
1935,00;0,0184
1934,00;0,0184
1933,00;0,0186
1932,00;0,0187
1931,00;0,0187
1930,00;0,0187
1929,00;0,0186
1928,00;0,0186
1927,00;0,0186
1926,00;0,0186
1925,00;0,0187
1924,00;0,0187
1923,00;0,0188
1922,00;0,0189
1921,00;0,0190
1920,00;0,0191
1919,00;0,0191
1918,00;0,0191
1917,00;0,0191
1916,00;0,0191
1915,00;0,0191
1914,00;0,0191
1913,00;0,0191
1912,00;0,0191
1911,00;0,0192
1910,00;0,0192
1909,00;0,0193
1908,00;0,0193
1907,00;0,0193
1906,00;0,0193
1905,00;0,0192
1904,00;0,0190
1903,00;0,0189
1902,00;0,0189
1901,00;0,0190
1900,00;0,0190
1899,00;0,0191
1898,00;0,0191
1897,00;0,0191
1896,00;0,0191
1895,00;0,0191
1894,00;0,0191
1893,00;0,0192
1892,00;0,0192
1891,00;0,0193
1890,00;0,0193
1889,00;0,0192
1888,00;0,0192
1887,00;0,0191
1886,00;0,0191
1885,00;0,0192
1884,00;0,0193
1883,00;0,0193
1882,00;0,0193
1881,00;0,0193
1880,00;0,0193
1879,00;0,0193
1878,00;0,0193
1877,00;0,0193
1876,00;0,0193
1875,00;0,0192
1874,00;0,0191
1873,00;0,0190
1872,00;0,0189
1871,00;0,0189
1870,00;0,0190
1869,00;0,0191
1868,00;0,0192
1867,00;0,0192
1866,00;0,0192
1865,00;0,0192
1864,00;0,0192
1863,00;0,0193
1862,00;0,0193
1861,00;0,0193
1860,00;0,0192
1859,00;0,0191
1858,00;0,0191
1857,00;0,0190
1856,00;0,0190
1855,00;0,0190
1854,00;0,0190
1853,00;0,0190
1852,00;0,0190
1851,00;0,0191
1850,00;0,0191
1849,00;0,0192
1848,00;0,0192
1847,00;0,0192
1846,00;0,0192
1845,00;0,0192
1844,00;0,0193
1843,00;0,0193
1842,00;0,0193
1841,00;0,0192
1840,00;0,0192
1839,00;0,0192
1838,00;0,0192
1837,00;0,0192
1836,00;0,0192
1835,00;0,0192
1834,00;0,0192
1833,00;0,0192
1832,00;0,0192
1831,00;0,0193
1830,00;0,0193
1829,00;0,0193
1828,00;0,0193
1827,00;0,0193
1826,00;0,0193
1825,00;0,0194
1824,00;0,0194
1823,00;0,0195
1822,00;0,0195
1821,00;0,0195
1820,00;0,0195
1819,00;0,0195
1818,00;0,0195
1817,00;0,0195
1816,00;0,0195
1815,00;0,0196
1814,00;0,0196
1813,00;0,0196
1812,00;0,0197
1811,00;0,0197
1810,00;0,0197
1809,00;0,0197
1808,00;0,0197
1807,00;0,0197
1806,00;0,0198
1805,00;0,0198
1804,00;0,0199
1803,00;0,0199
1802,00;0,0199
1801,00;0,0199
1800,00;0,0199
1799,00;0,0200
1798,00;0,0200
1797,00;0,0201
1796,00;0,0201
1795,00;0,0201
1794,00;0,0201
1793,00;0,0201
1792,00;0,0202
1791,00;0,0202
1790,00;0,0202
1789,00;0,0203
1788,00;0,0203
1787,00;0,0204
1786,00;0,0205
1785,00;0,0206
1784,00;0,0207
1783,00;0,0208
1782,00;0,0209
1781,00;0,0209
1780,00;0,0210
1779,00;0,0211
1778,00;0,0212
1777,00;0,0213
1776,00;0,0214
1775,00;0,0215
1774,00;0,0216
1773,00;0,0217
1772,00;0,0219
1771,00;0,0220
1770,00;0,0221
1769,00;0,0222
1768,00;0,0223
1767,00;0,0224
1766,00;0,0225
1765,00;0,0225
1764,00;0,0226
1763,00;0,0227
1762,00;0,0228
1761,00;0,0230
1760,00;0,0231
1759,00;0,0232
1758,00;0,0233
1757,00;0,0233
1756,00;0,0233
1755,00;0,0233
1754,00;0,0233
1753,00;0,0233
1752,00;0,0233
1751,00;0,0233
1750,00;0,0234
1749,00;0,0235
1748,00;0,0237
1747,00;0,0238
1746,00;0,0240
1745,00;0,0242
1744,00;0,0244
1743,00;0,0246
1742,00;0,0249
1741,00;0,0253
1740,00;0,0257
1739,00;0,0262
1738,00;0,0266
1737,00;0,0269
1736,00;0,0272
1735,00;0,0279
1734,00;0,0289
1733,00;0,0301
1732,00;0,0314
1731,00;0,0330
1730,00;0,0352
1729,00;0,0382
1728,00;0,0420
1727,00;0,0469
1726,00;0,0529
1725,00;0,0601
1724,00;0,0682
1723,00;0,0768
1722,00;0,0848
1721,00;0,0919
1720,00;0,0980
1719,00;0,1038
1718,00;0,1093
1717,00;0,1132
1716,00;0,1149
1715,00;0,1150
1714,00;0,1137
1713,00;0,1111
1712,00;0,1072
1711,00;0,1026
1710,00;0,0975
1709,00;0,0921
1708,00;0,0865
1707,00;0,0809
1706,00;0,0754
1705,00;0,0703
1704,00;0,0659
1703,00;0,0623
1702,00;0,0588
1701,00;0,0551
1700,00;0,0516
1699,00;0,0490
1698,00;0,0471
1697,00;0,0452
1696,00;0,0431
1695,00;0,0413
1694,00;0,0399
1693,00;0,0387
1692,00;0,0377
1691,00;0,0367
1690,00;0,0358
1689,00;0,0351
1688,00;0,0345
1687,00;0,0339
1686,00;0,0334
1685,00;0,0329
1684,00;0,0325
1683,00;0,0322
1682,00;0,0320
1681,00;0,0318
1680,00;0,0316
1679,00;0,0315
1678,00;0,0313
1677,00;0,0312
1676,00;0,0310
1675,00;0,0309
1674,00;0,0307
1673,00;0,0305
1672,00;0,0304
1671,00;0,0302
1670,00;0,0299
1669,00;0,0298
1668,00;0,0296
1667,00;0,0294
1666,00;0,0292
1665,00;0,0291
1664,00;0,0289
1663,00;0,0288
1662,00;0,0287
1661,00;0,0287
1660,00;0,0287
1659,00;0,0287
1658,00;0,0288
1657,00;0,0288
1656,00;0,0289
1655,00;0,0288
1654,00;0,0288
1653,00;0,0287
1652,00;0,0287
1651,00;0,0286
1650,00;0,0284
1649,00;0,0282
1648,00;0,0281
1647,00;0,0280
1646,00;0,0279
1645,00;0,0279
1644,00;0,0279
1643,00;0,0279
1642,00;0,0279
1641,00;0,0278
1640,00;0,0278
1639,00;0,0277
1638,00;0,0276
1637,00;0,0276
1636,00;0,0276
1635,00;0,0276
1634,00;0,0276
1633,00;0,0276
1632,00;0,0276
1631,00;0,0276
1630,00;0,0276
1629,00;0,0275
1628,00;0,0276
1627,00;0,0276
1626,00;0,0276
1625,00;0,0277
1624,00;0,0277
1623,00;0,0277
1622,00;0,0277
1621,00;0,0277
1620,00;0,0277
1619,00;0,0276
1618,00;0,0277
1617,00;0,0278
1616,00;0,0278
1615,00;0,0279
1614,00;0,0279
1613,00;0,0279
1612,00;0,0279
1611,00;0,0279
1610,00;0,0280
1609,00;0,0280
1608,00;0,0281
1607,00;0,0281
1606,00;0,0281
1605,00;0,0281
1604,00;0,0281
1603,00;0,0282
1602,00;0,0282
1601,00;0,0283
1600,00;0,0283
1599,00;0,0282
1598,00;0,0282
1597,00;0,0282
1596,00;0,0281
1595,00;0,0281
1594,00;0,0281
1593,00;0,0281
1592,00;0,0281
1591,00;0,0280
1590,00;0,0280
1589,00;0,0280
1588,00;0,0280
1587,00;0,0280
1586,00;0,0280
1585,00;0,0280
1584,00;0,0280
1583,00;0,0280
1582,00;0,0279
1581,00;0,0279
1580,00;0,0279
1579,00;0,0279
1578,00;0,0279
1577,00;0,0279
1576,00;0,0279
1575,00;0,0279
1574,00;0,0278
1573,00;0,0277
1572,00;0,0277
1571,00;0,0276
1570,00;0,0275
1569,00;0,0275
1568,00;0,0274
1567,00;0,0274
1566,00;0,0273
1565,00;0,0272
1564,00;0,0271
1563,00;0,0270
1562,00;0,0269
1561,00;0,0269
1560,00;0,0267
1559,00;0,0266
1558,00;0,0264
1557,00;0,0264
1556,00;0,0263
1555,00;0,0263
1554,00;0,0262
1553,00;0,0262
1552,00;0,0262
1551,00;0,0261
1550,00;0,0261
1549,00;0,0261
1548,00;0,0261
1547,00;0,0261
1546,00;0,0260
1545,00;0,0260
1544,00;0,0259
1543,00;0,0259
1542,00;0,0259
1541,00;0,0259
1540,00;0,0260
1539,00;0,0260
1538,00;0,0260
1537,00;0,0260
1536,00;0,0260
1535,00;0,0261
1534,00;0,0261
1533,00;0,0261
1532,00;0,0261
1531,00;0,0261
1530,00;0,0261
1529,00;0,0261
1528,00;0,0261
1527,00;0,0261
1526,00;0,0261
1525,00;0,0262
1524,00;0,0262
1523,00;0,0262
1522,00;0,0262
1521,00;0,0263
1520,00;0,0264
1519,00;0,0264
1518,00;0,0265
1517,00;0,0265
1516,00;0,0265
1515,00;0,0265
1514,00;0,0264
1513,00;0,0264
1512,00;0,0264
1511,00;0,0264
1510,00;0,0264
1509,00;0,0264
1508,00;0,0265
1507,00;0,0264
1506,00;0,0264
1505,00;0,0264
1504,00;0,0264
1503,00;0,0264
1502,00;0,0264
1501,00;0,0265
1500,00;0,0266
1499,00;0,0267
1498,00;0,0267
1497,00;0,0269
1496,00;0,0270
1495,00;0,0272
1494,00;0,0273
1493,00;0,0274
1492,00;0,0276
1491,00;0,0277
1490,00;0,0278
1489,00;0,0280
1488,00;0,0282
1487,00;0,0284
1486,00;0,0286
1485,00;0,0289
1484,00;0,0292
1483,00;0,0295
1482,00;0,0299
1481,00;0,0305
1480,00;0,0311
1479,00;0,0317
1478,00;0,0325
1477,00;0,0337
1476,00;0,0353
1475,00;0,0373
1474,00;0,0405
1473,00;0,0457
1472,00;0,0530
1471,00;0,0615
1470,00;0,0705
1469,00;0,0795
1468,00;0,0877
1467,00;0,0944
1466,00;0,0992
1465,00;0,1022
1464,00;0,1035
1463,00;0,1039
1462,00;0,1038
1461,00;0,1036
1460,00;0,1033
1459,00;0,1029
1458,00;0,1027
1457,00;0,1023
1456,00;0,1012
1455,00;0,0993
1454,00;0,0968
1453,00;0,0939
1452,00;0,0907
1451,00;0,0876
1450,00;0,0848
1449,00;0,0825
1448,00;0,0806
1447,00;0,0792
1446,00;0,0781
1445,00;0,0772
1444,00;0,0765
1443,00;0,0759
1442,00;0,0752
1441,00;0,0746
1440,00;0,0740
1439,00;0,0734
1438,00;0,0726
1437,00;0,0717
1436,00;0,0706
1435,00;0,0694
1434,00;0,0681
1433,00;0,0666
1432,00;0,0647
1431,00;0,0627
1430,00;0,0605
1429,00;0,0584
1428,00;0,0566
1427,00;0,0550
1426,00;0,0537
1425,00;0,0525
1424,00;0,0517
1423,00;0,0511
1422,00;0,0509
1421,00;0,0508
1420,00;0,0511
1419,00;0,0516
1418,00;0,0524
1417,00;0,0532
1416,00;0,0540
1415,00;0,0549
1414,00;0,0558
1413,00;0,0567
1412,00;0,0575
1411,00;0,0581
1410,00;0,0584
1409,00;0,0585
1408,00;0,0584
1407,00;0,0581
1406,00;0,0575
1405,00;0,0566
1404,00;0,0554
1403,00;0,0539
1402,00;0,0522
1401,00;0,0504
1400,00;0,0485
1399,00;0,0467
1398,00;0,0451
1397,00;0,0439
1396,00;0,0429
1395,00;0,0421
1394,00;0,0415
1393,00;0,0411
1392,00;0,0408
1391,00;0,0407
1390,00;0,0407
1389,00;0,0409
1388,00;0,0413
1387,00;0,0419
1386,00;0,0428
1385,00;0,0440
1384,00;0,0457
1383,00;0,0479
1382,00;0,0507
1381,00;0,0540
1380,00;0,0575
1379,00;0,0607
1378,00;0,0631
1377,00;0,0644
1376,00;0,0647
1375,00;0,0646
1374,00;0,0643
1373,00;0,0641
1372,00;0,0642
1371,00;0,0644
1370,00;0,0645
1369,00;0,0645
1368,00;0,0643
1367,00;0,0640
1366,00;0,0634
1365,00;0,0628
1364,00;0,0620
1363,00;0,0611
1362,00;0,0603
1361,00;0,0596
1360,00;0,0590
1359,00;0,0584
1358,00;0,0579
1357,00;0,0575
1356,00;0,0572
1355,00;0,0568
1354,00;0,0565
1353,00;0,0561
1352,00;0,0556
1351,00;0,0550
1350,00;0,0544
1349,00;0,0537
1348,00;0,0530
1347,00;0,0522
1346,00;0,0514
1345,00;0,0507
1344,00;0,0500
1343,00;0,0494
1342,00;0,0487
1341,00;0,0480
1340,00;0,0472
1339,00;0,0463
1338,00;0,0455
1337,00;0,0448
1336,00;0,0441
1335,00;0,0436
1334,00;0,0432
1333,00;0,0428
1332,00;0,0425
1331,00;0,0423
1330,00;0,0422
1329,00;0,0422
1328,00;0,0422
1327,00;0,0422
1326,00;0,0423
1325,00;0,0424
1324,00;0,0425
1323,00;0,0427
1322,00;0,0429
1321,00;0,0430
1320,00;0,0432
1319,00;0,0434
1318,00;0,0436
1317,00;0,0438
1316,00;0,0440
1315,00;0,0441
1314,00;0,0443
1313,00;0,0445
1312,00;0,0446
1311,00;0,0448
1310,00;0,0450
1309,00;0,0451
1308,00;0,0453
1307,00;0,0454
1306,00;0,0455
1305,00;0,0457
1304,00;0,0458
1303,00;0,0458
1302,00;0,0458
1301,00;0,0457
1300,00;0,0456
1299,00;0,0454
1298,00;0,0452
1297,00;0,0450
1296,00;0,0448
1295,00;0,0445
1294,00;0,0443
1293,00;0,0440
1292,00;0,0438
1291,00;0,0435
1290,00;0,0433
1289,00;0,0432
1288,00;0,0430
1287,00;0,0429
1286,00;0,0429
1285,00;0,0429
1284,00;0,0429
1283,00;0,0429
1282,00;0,0429
1281,00;0,0429
1280,00;0,0428
1279,00;0,0428
1278,00;0,0427
1277,00;0,0427
1276,00;0,0426
1275,00;0,0425
1274,00;0,0423
1273,00;0,0421
1272,00;0,0420
1271,00;0,0418
1270,00;0,0416
1269,00;0,0414
1268,00;0,0412
1267,00;0,0410
1266,00;0,0409
1265,00;0,0408
1264,00;0,0407
1263,00;0,0406
1262,00;0,0405
1261,00;0,0404
1260,00;0,0403
1259,00;0,0402
1258,00;0,0402
1257,00;0,0401
1256,00;0,0399
1255,00;0,0398
1254,00;0,0398
1253,00;0,0397
1252,00;0,0397
1251,00;0,0397
1250,00;0,0396
1249,00;0,0396
1248,00;0,0396
1247,00;0,0396
1246,00;0,0396
1245,00;0,0396
1244,00;0,0396
1243,00;0,0396
1242,00;0,0396
1241,00;0,0396
1240,00;0,0396
1239,00;0,0395
1238,00;0,0395
1237,00;0,0394
1236,00;0,0394
1235,00;0,0393
1234,00;0,0393
1233,00;0,0392
1232,00;0,0391
1231,00;0,0391
1230,00;0,0391
1229,00;0,0390
1228,00;0,0389
1227,00;0,0388
1226,00;0,0386
1225,00;0,0385
1224,00;0,0384
1223,00;0,0384
1222,00;0,0384
1221,00;0,0384
1220,00;0,0385
1219,00;0,0385
1218,00;0,0386
1217,00;0,0386
1216,00;0,0386
1215,00;0,0385
1214,00;0,0385
1213,00;0,0385
1212,00;0,0384
1211,00;0,0384
1210,00;0,0384
1209,00;0,0384
1208,00;0,0385
1207,00;0,0386
1206,00;0,0386
1205,00;0,0386
1204,00;0,0386
1203,00;0,0386
1202,00;0,0386
1201,00;0,0386
1200,00;0,0387
1199,00;0,0387
1198,00;0,0387
1197,00;0,0387
1196,00;0,0387
1195,00;0,0387
1194,00;0,0386
1193,00;0,0386
1192,00;0,0386
1191,00;0,0386
1190,00;0,0387
1189,00;0,0387
1188,00;0,0387
1187,00;0,0388
1186,00;0,0388
1185,00;0,0388
1184,00;0,0388
1183,00;0,0388
1182,00;0,0388
1181,00;0,0388
1180,00;0,0389
1179,00;0,0389
1178,00;0,0389
1177,00;0,0389
1176,00;0,0389
1175,00;0,0388
1174,00;0,0388
1173,00;0,0388
1172,00;0,0388
1171,00;0,0388
1170,00;0,0388
1169,00;0,0388
1168,00;0,0387
1167,00;0,0386
1166,00;0,0385
1165,00;0,0384
1164,00;0,0383
1163,00;0,0382
1162,00;0,0381
1161,00;0,0381
1160,00;0,0380
1159,00;0,0379
1158,00;0,0379
1157,00;0,0378
1156,00;0,0378
1155,00;0,0378
1154,00;0,0378
1153,00;0,0377
1152,00;0,0377
1151,00;0,0377
1150,00;0,0377
1149,00;0,0377
1148,00;0,0377
1147,00;0,0377
1146,00;0,0377
1145,00;0,0377
1144,00;0,0377
1143,00;0,0378
1142,00;0,0379
1141,00;0,0381
1140,00;0,0383
1139,00;0,0385
1138,00;0,0387
1137,00;0,0389
1136,00;0,0391
1135,00;0,0394
1134,00;0,0396
1133,00;0,0397
1132,00;0,0398
1131,00;0,0398
1130,00;0,0397
1129,00;0,0396
1128,00;0,0394
1127,00;0,0393
1126,00;0,0392
1125,00;0,0392
1124,00;0,0392
1123,00;0,0393
1122,00;0,0394
1121,00;0,0396
1120,00;0,0398
1119,00;0,0402
1118,00;0,0405
1117,00;0,0408
1116,00;0,0411
1115,00;0,0414
1114,00;0,0417
1113,00;0,0420
1112,00;0,0422
1111,00;0,0425
1110,00;0,0427
1109,00;0,0428
1108,00;0,0429
1107,00;0,0430
1106,00;0,0430
1105,00;0,0430
1104,00;0,0429
1103,00;0,0428
1102,00;0,0425
1101,00;0,0423
1100,00;0,0420
1099,00;0,0416
1098,00;0,0413
1097,00;0,0409
1096,00;0,0406
1095,00;0,0402
1094,00;0,0400
1093,00;0,0397
1092,00;0,0395
1091,00;0,0394
1090,00;0,0392
1089,00;0,0391
1088,00;0,0391
1087,00;0,0390
1086,00;0,0390
1085,00;0,0390
1084,00;0,0390
1083,00;0,0391
1082,00;0,0392
1081,00;0,0393
1080,00;0,0395
1079,00;0,0397
1078,00;0,0400
1077,00;0,0402
1076,00;0,0404
1075,00;0,0406
1074,00;0,0407
1073,00;0,0409
1072,00;0,0411
1071,00;0,0413
1070,00;0,0415
1069,00;0,0416
1068,00;0,0418
1067,00;0,0420
1066,00;0,0422
1065,00;0,0424
1064,00;0,0426
1063,00;0,0428
1062,00;0,0429
1061,00;0,0429
1060,00;0,0429
1059,00;0,0430
1058,00;0,0430
1057,00;0,0430
1056,00;0,0430
1055,00;0,0430
1054,00;0,0429
1053,00;0,0429
1052,00;0,0429
1051,00;0,0429
1050,00;0,0429
1049,00;0,0428
1048,00;0,0428
1047,00;0,0427
1046,00;0,0425
1045,00;0,0424
1044,00;0,0422
1043,00;0,0420
1042,00;0,0419
1041,00;0,0416
1040,00;0,0414
1039,00;0,0411
1038,00;0,0409
1037,00;0,0407
1036,00;0,0406
1035,00;0,0404
1034,00;0,0403
1033,00;0,0402
1032,00;0,0400
1031,00;0,0399
1030,00;0,0398
1029,00;0,0398
1028,00;0,0397
1027,00;0,0397
1026,00;0,0396
1025,00;0,0396
1024,00;0,0395
1023,00;0,0394
1022,00;0,0394
1021,00;0,0393
1020,00;0,0393
1019,00;0,0393
1018,00;0,0392
1017,00;0,0393
1016,00;0,0393
1015,00;0,0394
1014,00;0,0394
1013,00;0,0394
1012,00;0,0394
1011,00;0,0393
1010,00;0,0392
1009,00;0,0391
1008,00;0,0390
1007,00;0,0390
1006,00;0,0390
1005,00;0,0389
1004,00;0,0389
1003,00;0,0389
1002,00;0,0389
1001,00;0,0389
1000,00;0,0390
999,00;0,0391
998,00;0,0393
997,00;0,0394
996,00;0,0395
995,00;0,0397
994,00;0,0399
993,00;0,0402
992,00;0,0406
991,00;0,0411
990,00;0,0417
989,00;0,0422
988,00;0,0427
987,00;0,0431
986,00;0,0434
985,00;0,0435
984,00;0,0436
983,00;0,0437
982,00;0,0438
981,00;0,0440
980,00;0,0445
979,00;0,0453
978,00;0,0463
977,00;0,0477
976,00;0,0493
975,00;0,0511
974,00;0,0533
973,00;0,0559
972,00;0,0586
971,00;0,0615
970,00;0,0644
969,00;0,0669
968,00;0,0690
967,00;0,0702
966,00;0,0703
965,00;0,0692
964,00;0,0670
963,00;0,0638
962,00;0,0601
961,00;0,0564
960,00;0,0529
959,00;0,0499
958,00;0,0473
957,00;0,0452
956,00;0,0436
955,00;0,0422
954,00;0,0411
953,00;0,0402
952,00;0,0395
951,00;0,0389
950,00;0,0385
949,00;0,0383
948,00;0,0380
947,00;0,0378
946,00;0,0376
945,00;0,0373
944,00;0,0370
943,00;0,0367
942,00;0,0365
941,00;0,0363
940,00;0,0360
939,00;0,0357
938,00;0,0355
937,00;0,0354
936,00;0,0352
935,00;0,0351
934,00;0,0350
933,00;0,0350
932,00;0,0349
931,00;0,0348
930,00;0,0348
929,00;0,0347
928,00;0,0346
927,00;0,0345
926,00;0,0345
925,00;0,0345
924,00;0,0345
923,00;0,0345
922,00;0,0345
921,00;0,0345
920,00;0,0346
919,00;0,0346
918,00;0,0346
917,00;0,0346
916,00;0,0346
915,00;0,0347
914,00;0,0348
913,00;0,0349
912,00;0,0350
911,00;0,0352
910,00;0,0353
909,00;0,0354
908,00;0,0354
907,00;0,0355
906,00;0,0355
905,00;0,0355
904,00;0,0356
903,00;0,0357
902,00;0,0358
901,00;0,0358
900,00;0,0359
899,00;0,0359
898,00;0,0360
897,00;0,0362
896,00;0,0364
895,00;0,0366
894,00;0,0368
893,00;0,0370
892,00;0,0372
891,00;0,0374
890,00;0,0374
889,00;0,0375
888,00;0,0375
887,00;0,0375
886,00;0,0374
885,00;0,0373
884,00;0,0372
883,00;0,0371
882,00;0,0370
881,00;0,0369
880,00;0,0369
879,00;0,0370
878,00;0,0371
877,00;0,0372
876,00;0,0371
875,00;0,0371
874,00;0,0371
873,00;0,0371
872,00;0,0372
871,00;0,0373
870,00;0,0373
869,00;0,0373
868,00;0,0373
867,00;0,0374
866,00;0,0374
865,00;0,0374
864,00;0,0375
863,00;0,0377
862,00;0,0378
861,00;0,0379
860,00;0,0380
859,00;0,0380
858,00;0,0380
857,00;0,0381
856,00;0,0381
855,00;0,0381
854,00;0,0381
853,00;0,0380
852,00;0,0379
851,00;0,0378
850,00;0,0378
849,00;0,0378
848,00;0,0378
847,00;0,0378
846,00;0,0377
845,00;0,0378
844,00;0,0378
843,00;0,0378
842,00;0,0377
841,00;0,0377
840,00;0,0377
839,00;0,0377
838,00;0,0376
837,00;0,0376
836,00;0,0377
835,00;0,0378
834,00;0,0380
833,00;0,0381
832,00;0,0381
831,00;0,0382
830,00;0,0383
829,00;0,0383
828,00;0,0384
827,00;0,0384
826,00;0,0384
825,00;0,0384
824,00;0,0385
823,00;0,0387
822,00;0,0389
821,00;0,0392
820,00;0,0394
819,00;0,0396
818,00;0,0397
817,00;0,0398
816,00;0,0399
815,00;0,0398
814,00;0,0398
813,00;0,0398
812,00;0,0399
811,00;0,0400
810,00;0,0401
809,00;0,0402
808,00;0,0402
807,00;0,0403
806,00;0,0404
805,00;0,0404
804,00;0,0404
803,00;0,0404
802,00;0,0405
801,00;0,0406
800,00;0,0407
799,00;0,0407
798,00;0,0407
797,00;0,0408
796,00;0,0409
795,00;0,0411
794,00;0,0413
793,00;0,0415
792,00;0,0416
791,00;0,0417
790,00;0,0417
789,00;0,0417
788,00;0,0418
787,00;0,0420
786,00;0,0423
785,00;0,0427
784,00;0,0430
783,00;0,0432
782,00;0,0434
781,00;0,0437
780,00;0,0440
779,00;0,0443
778,00;0,0446
777,00;0,0449
776,00;0,0451
775,00;0,0454
774,00;0,0457
773,00;0,0462
772,00;0,0466
771,00;0,0471
770,00;0,0476
769,00;0,0480
768,00;0,0483
767,00;0,0487
766,00;0,0490
765,00;0,0494
764,00;0,0497
763,00;0,0500
762,00;0,0503
761,00;0,0505
760,00;0,0508
759,00;0,0510
758,00;0,0515
757,00;0,0521
756,00;0,0529
755,00;0,0537
754,00;0,0544
753,00;0,0549
752,00;0,0555
751,00;0,0560
750,00;0,0566
749,00;0,0574
748,00;0,0584
747,00;0,0594
746,00;0,0603
745,00;0,0611
744,00;0,0620
743,00;0,0630
742,00;0,0641
741,00;0,0654
740,00;0,0667
739,00;0,0681
738,00;0,0696
737,00;0,0712
736,00;0,0731
735,00;0,0751
734,00;0,0772
733,00;0,0794
732,00;0,0817
731,00;0,0843
730,00;0,0871
729,00;0,0902
728,00;0,0936
727,00;0,0973
726,00;0,1010
725,00;0,1046
724,00;0,1079
723,00;0,1104
722,00;0,1117
721,00;0,1118
720,00;0,1108
719,00;0,1089
718,00;0,1066
717,00;0,1042
716,00;0,1019
715,00;0,0997
714,00;0,0977
713,00;0,0959
712,00;0,0943
711,00;0,0929
710,00;0,0917
709,00;0,0905
708,00;0,0893
707,00;0,0881
706,00;0,0871
705,00;0,0863
704,00;0,0856
703,00;0,0850
702,00;0,0846
701,00;0,0844
700,00;0,0844
699,00;0,0843
698,00;0,0842
697,00;0,0840
696,00;0,0837
695,00;0,0833
694,00;0,0830
693,00;0,0826
692,00;0,0824
691,00;0,0822
690,00;0,0822
689,00;0,0821
688,00;0,0820
687,00;0,0819
686,00;0,0819
685,00;0,0819
684,00;0,0819
683,00;0,0819
682,00;0,0818
681,00;0,0817
680,00;0,0815
679,00;0,0813
678,00;0,0811
677,00;0,0810
676,00;0,0810
675,00;0,0810
674,00;0,0811
673,00;0,0812
672,00;0,0814
671,00;0,0817
670,00;0,0819
669,00;0,0821
668,00;0,0825
667,00;0,0830
666,00;0,0834
665,00;0,0838
664,00;0,0841
663,00;0,0844
662,00;0,0847
661,00;0,0851
660,00;0,0855
659,00;0,0861
658,00;0,0868
657,00;0,0876
656,00;0,0884
655,00;0,0890
654,00;0,0895
653,00;0,0900
652,00;0,0905
651,00;0,0911
650,00;0,0918
649,00;0,0924
648,00;0,0932
647,00;0,0941
646,00;0,0948
645,00;0,0954
644,00;0,0959
643,00;0,0963
642,00;0,0966
641,00;0,0968
640,00;0,0972
639,00;0,0975
638,00;0,0977
637,00;0,0979
636,00;0,0981
635,00;0,0983
634,00;0,0984
633,00;0,0985
632,00;0,0985
631,00;0,0985
630,00;0,0986
629,00;0,0988
628,00;0,0990
627,00;0,0992
626,00;0,0993
625,00;0,0993
624,00;0,0993
623,00;0,0993
622,00;0,0992
621,00;0,0992
620,00;0,0992
619,00;0,0990
618,00;0,0988
617,00;0,0986
616,00;0,0984
615,00;0,0983
614,00;0,0983
613,00;0,0982
612,00;0,0981
611,00;0,0979
610,00;0,0976
609,00;0,0973
608,00;0,0971
607,00;0,0971
606,00;0,0972
605,00;0,0974
604,00;0,0976
603,00;0,0976
602,00;0,0972
601,00;0,0967
600,00;0,0962
599,00;0,0959
598,00;0,0958
597,00;0,0958
596,00;0,0957
595,00;0,0955
594,00;0,0953
593,00;0,0951
592,00;0,0948
591,00;0,0944
590,00;0,0940
589,00;0,0935
588,00;0,0929
587,00;0,0922
586,00;0,0913
585,00;0,0902
584,00;0,0892
583,00;0,0882
582,00;0,0875
581,00;0,0870
580,00;0,0864
579,00;0,0858
578,00;0,0848
577,00;0,0837
576,00;0,0824
575,00;0,0809
574,00;0,0793
573,00;0,0776
572,00;0,0758
571,00;0,0739
570,00;0,0720
569,00;0,0703
568,00;0,0687
567,00;0,0673
566,00;0,0660
565,00;0,0647
564,00;0,0632
563,00;0,0615
562,00;0,0601
561,00;0,0590
560,00;0,0582
559,00;0,0575
558,00;0,0567
557,00;0,0557
556,00;0,0547
555,00;0,0537
554,00;0,0530
553,00;0,0525
552,00;0,0520
551,00;0,0518
550,00;0,0516
549,00;0,0515
548,00;0,0514
547,00;0,0512
546,00;0,0510
545,00;0,0505
544,00;0,0498
543,00;0,0490
542,00;0,0483
541,00;0,0479
540,00;0,0476
539,00;0,0476
538,00;0,0477
537,00;0,0477
536,00;0,0476
535,00;0,0475
534,00;0,0476
533,00;0,0479
532,00;0,0482
531,00;0,0483
530,00;0,0482
529,00;0,0478
528,00;0,0475
527,00;0,0474
526,00;0,0476
525,00;0,0478
524,00;0,0479
523,00;0,0480
522,00;0,0482
521,00;0,0483
520,00;0,0483
519,00;0,0481
518,00;0,0480
517,00;0,0483
516,00;0,0486
515,00;0,0489
514,00;0,0490
513,00;0,0490
512,00;0,0490
511,00;0,0491
510,00;0,0495
509,00;0,0499
508,00;0,0506
507,00;0,0512
506,00;0,0517
505,00;0,0521
504,00;0,0523
503,00;0,0525
502,00;0,0526
501,00;0,0526
500,00;0,0525
499,00;0,0526
498,00;0,0529
497,00;0,0534
496,00;0,0538
495,00;0,0538
494,00;0,0538
493,00;0,0538
492,00;0,0541
491,00;0,0546
490,00;0,0551
489,00;0,0556
488,00;0,0561
487,00;0,0564
486,00;0,0564
485,00;0,0563
484,00;0,0563
483,00;0,0568
482,00;0,0576
481,00;0,0583
480,00;0,0586
479,00;0,0586
478,00;0,0583
477,00;0,0580
476,00;0,0578
475,00;0,0576
474,00;0,0574
473,00;0,0574
472,00;0,0579
471,00;0,0589
470,00;0,0600
469,00;0,0607
468,00;0,0608
467,00;0,0605
466,00;0,0602
465,00;0,0600
464,00;0,0599
463,00;0,0601
462,00;0,0606
461,00;0,0612
460,00;0,0615
459,00;0,0617
458,00;0,0620
457,00;0,0625
456,00;0,0633
455,00;0,0641
454,00;0,0650
453,00;0,0657
452,00;0,0659
451,00;0,0659
450,00;0,0661
449,00;0,0664
448,00;0,0666
447,00;0,0669
446,00;0,0677
445,00;0,0689
444,00;0,0699
443,00;0,0701
442,00;0,0696
441,00;0,0693
440,00;0,0696
439,00;0,0701
438,00;0,0705
437,00;0,0702
436,00;0,0694
435,00;0,0686
434,00;0,0687
433,00;0,0701
432,00;0,0722
431,00;0,0738
430,00;0,0738
429,00;0,0726
428,00;0,0711
427,00;0,0702
426,00;0,0701
425,00;0,0704
424,00;0,0708
423,00;0,0713
422,00;0,0716
421,00;0,0712
420,00;0,0701
419,00;0,0695
418,00;0,0705
417,00;0,0720
416,00;0,0723
415,00;0,0711
414,00;0,0695
413,00;0,0684
412,00;0,0679
411,00;0,0680
410,00;0,0692
409,00;0,0712
408,00;0,0720
407,00;0,0702
406,00;0,0671
405,00;0,0655
404,00;0,0673
403,00;0,0709
402,00;0,0739
401,00;0,0753
400,00;0,0757
