Создан как новый массив данных;Образец 007 полученный BalashovM Дата пятница, апреля 21 2023
cm-1;A
4000,00;0,0243
3999,00;0,0242
3998,00;0,0242
3997,00;0,0242
3996,00;0,0242
3995,00;0,0241
3994,00;0,0241
3993,00;0,0241
3992,00;0,0241
3991,00;0,0242
3990,00;0,0242
3989,00;0,0242
3988,00;0,0242
3987,00;0,0242
3986,00;0,0242
3985,00;0,0242
3984,00;0,0242
3983,00;0,0242
3982,00;0,0242
3981,00;0,0241
3980,00;0,0241
3979,00;0,0241
3978,00;0,0241
3977,00;0,0241
3976,00;0,0241
3975,00;0,0241
3974,00;0,0241
3973,00;0,0242
3972,00;0,0242
3971,00;0,0242
3970,00;0,0242
3969,00;0,0242
3968,00;0,0241
3967,00;0,0241
3966,00;0,0241
3965,00;0,0241
3964,00;0,0241
3963,00;0,0241
3962,00;0,0241
3961,00;0,0241
3960,00;0,0241
3959,00;0,0241
3958,00;0,0241
3957,00;0,0241
3956,00;0,0241
3955,00;0,0241
3954,00;0,0241
3953,00;0,0241
3952,00;0,0241
3951,00;0,0241
3950,00;0,0241
3949,00;0,0241
3948,00;0,0241
3947,00;0,0240
3946,00;0,0240
3945,00;0,0241
3944,00;0,0241
3943,00;0,0241
3942,00;0,0241
3941,00;0,0240
3940,00;0,0240
3939,00;0,0241
3938,00;0,0241
3937,00;0,0241
3936,00;0,0241
3935,00;0,0241
3934,00;0,0240
3933,00;0,0240
3932,00;0,0240
3931,00;0,0240
3930,00;0,0240
3929,00;0,0240
3928,00;0,0241
3927,00;0,0241
3926,00;0,0241
3925,00;0,0241
3924,00;0,0240
3923,00;0,0240
3922,00;0,0240
3921,00;0,0240
3920,00;0,0240
3919,00;0,0240
3918,00;0,0241
3917,00;0,0241
3916,00;0,0241
3915,00;0,0241
3914,00;0,0241
3913,00;0,0240
3912,00;0,0240
3911,00;0,0240
3910,00;0,0240
3909,00;0,0239
3908,00;0,0239
3907,00;0,0239
3906,00;0,0239
3905,00;0,0239
3904,00;0,0239
3903,00;0,0239
3902,00;0,0239
3901,00;0,0240
3900,00;0,0240
3899,00;0,0241
3898,00;0,0240
3897,00;0,0240
3896,00;0,0240
3895,00;0,0240
3894,00;0,0240
3893,00;0,0239
3892,00;0,0239
3891,00;0,0239
3890,00;0,0238
3889,00;0,0238
3888,00;0,0238
3887,00;0,0239
3886,00;0,0240
3885,00;0,0240
3884,00;0,0239
3883,00;0,0239
3882,00;0,0240
3881,00;0,0240
3880,00;0,0240
3879,00;0,0240
3878,00;0,0239
3877,00;0,0239
3876,00;0,0239
3875,00;0,0239
3874,00;0,0239
3873,00;0,0238
3872,00;0,0238
3871,00;0,0238
3870,00;0,0238
3869,00;0,0238
3868,00;0,0237
3867,00;0,0237
3866,00;0,0237
3865,00;0,0238
3864,00;0,0238
3863,00;0,0238
3862,00;0,0238
3861,00;0,0238
3860,00;0,0238
3859,00;0,0238
3858,00;0,0237
3857,00;0,0235
3856,00;0,0234
3855,00;0,0234
3854,00;0,0235
3853,00;0,0236
3852,00;0,0236
3851,00;0,0236
3850,00;0,0237
3849,00;0,0239
3848,00;0,0240
3847,00;0,0240
3846,00;0,0240
3845,00;0,0239
3844,00;0,0239
3843,00;0,0238
3842,00;0,0237
3841,00;0,0237
3840,00;0,0237
3839,00;0,0237
3838,00;0,0237
3837,00;0,0237
3836,00;0,0236
3835,00;0,0236
3834,00;0,0237
3833,00;0,0238
3832,00;0,0239
3831,00;0,0239
3830,00;0,0238
3829,00;0,0238
3828,00;0,0238
3827,00;0,0238
3826,00;0,0237
3825,00;0,0236
3824,00;0,0235
3823,00;0,0235
3822,00;0,0236
3821,00;0,0236
3820,00;0,0235
3819,00;0,0235
3818,00;0,0235
3817,00;0,0237
3816,00;0,0238
3815,00;0,0238
3814,00;0,0238
3813,00;0,0239
3812,00;0,0239
3811,00;0,0239
3810,00;0,0238
3809,00;0,0238
3808,00;0,0238
3807,00;0,0237
3806,00;0,0236
3805,00;0,0235
3804,00;0,0235
3803,00;0,0235
3802,00;0,0235
3801,00;0,0235
3800,00;0,0234
3799,00;0,0234
3798,00;0,0235
3797,00;0,0237
3796,00;0,0238
3795,00;0,0238
3794,00;0,0239
3793,00;0,0239
3792,00;0,0239
3791,00;0,0239
3790,00;0,0238
3789,00;0,0238
3788,00;0,0238
3787,00;0,0238
3786,00;0,0238
3785,00;0,0238
3784,00;0,0238
3783,00;0,0238
3782,00;0,0237
3781,00;0,0237
3780,00;0,0237
3779,00;0,0237
3778,00;0,0237
3777,00;0,0237
3776,00;0,0237
3775,00;0,0237
3774,00;0,0237
3773,00;0,0237
3772,00;0,0237
3771,00;0,0237
3770,00;0,0237
3769,00;0,0237
3768,00;0,0237
3767,00;0,0237
3766,00;0,0237
3765,00;0,0237
3764,00;0,0236
3763,00;0,0236
3762,00;0,0236
3761,00;0,0236
3760,00;0,0236
3759,00;0,0236
3758,00;0,0236
3757,00;0,0236
3756,00;0,0235
3755,00;0,0234
3754,00;0,0233
3753,00;0,0233
3752,00;0,0232
3751,00;0,0232
3750,00;0,0232
3749,00;0,0232
3748,00;0,0231
3747,00;0,0231
3746,00;0,0232
3745,00;0,0232
3744,00;0,0233
3743,00;0,0232
3742,00;0,0232
3741,00;0,0233
3740,00;0,0234
3739,00;0,0234
3738,00;0,0233
3737,00;0,0232
3736,00;0,0232
3735,00;0,0233
3734,00;0,0233
3733,00;0,0234
3732,00;0,0235
3731,00;0,0235
3730,00;0,0234
3729,00;0,0235
3728,00;0,0235
3727,00;0,0235
3726,00;0,0235
3725,00;0,0235
3724,00;0,0234
3723,00;0,0234
3722,00;0,0234
3721,00;0,0233
3720,00;0,0233
3719,00;0,0233
3718,00;0,0233
3717,00;0,0233
3716,00;0,0233
3715,00;0,0233
3714,00;0,0233
3713,00;0,0233
3712,00;0,0233
3711,00;0,0233
3710,00;0,0233
3709,00;0,0233
3708,00;0,0234
3707,00;0,0234
3706,00;0,0235
3705,00;0,0235
3704,00;0,0235
3703,00;0,0235
3702,00;0,0235
3701,00;0,0234
3700,00;0,0234
3699,00;0,0234
3698,00;0,0233
3697,00;0,0233
3696,00;0,0233
3695,00;0,0233
3694,00;0,0232
3693,00;0,0232
3692,00;0,0231
3691,00;0,0231
3690,00;0,0231
3689,00;0,0231
3688,00;0,0231
3687,00;0,0232
3686,00;0,0232
3685,00;0,0233
3684,00;0,0234
3683,00;0,0234
3682,00;0,0234
3681,00;0,0233
3680,00;0,0232
3679,00;0,0231
3678,00;0,0230
3677,00;0,0230
3676,00;0,0230
3675,00;0,0230
3674,00;0,0229
3673,00;0,0230
3672,00;0,0231
3671,00;0,0233
3670,00;0,0234
3669,00;0,0234
3668,00;0,0233
3667,00;0,0234
3666,00;0,0234
3665,00;0,0234
3664,00;0,0234
3663,00;0,0234
3662,00;0,0234
3661,00;0,0233
3660,00;0,0233
3659,00;0,0233
3658,00;0,0233
3657,00;0,0233
3656,00;0,0232
3655,00;0,0232
3654,00;0,0231
3653,00;0,0230
3652,00;0,0230
3651,00;0,0230
3650,00;0,0229
3649,00;0,0230
3648,00;0,0230
3647,00;0,0231
3646,00;0,0232
3645,00;0,0232
3644,00;0,0233
3643,00;0,0233
3642,00;0,0232
3641,00;0,0232
3640,00;0,0232
3639,00;0,0232
3638,00;0,0232
3637,00;0,0232
3636,00;0,0232
3635,00;0,0232
3634,00;0,0232
3633,00;0,0231
3632,00;0,0230
3631,00;0,0230
3630,00;0,0230
3629,00;0,0231
3628,00;0,0231
3627,00;0,0231
3626,00;0,0231
3625,00;0,0232
3624,00;0,0232
3623,00;0,0232
3622,00;0,0232
3621,00;0,0232
3620,00;0,0232
3619,00;0,0231
3618,00;0,0230
3617,00;0,0230
3616,00;0,0230
3615,00;0,0230
3614,00;0,0231
3613,00;0,0231
3612,00;0,0231
3611,00;0,0231
3610,00;0,0232
3609,00;0,0232
3608,00;0,0232
3607,00;0,0232
3606,00;0,0232
3605,00;0,0232
3604,00;0,0232
3603,00;0,0233
3602,00;0,0232
3601,00;0,0232
3600,00;0,0232
3599,00;0,0232
3598,00;0,0232
3597,00;0,0232
3596,00;0,0232
3595,00;0,0231
3594,00;0,0231
3593,00;0,0231
3592,00;0,0232
3591,00;0,0232
3590,00;0,0232
3589,00;0,0232
3588,00;0,0232
3587,00;0,0232
3586,00;0,0232
3585,00;0,0232
3584,00;0,0232
3583,00;0,0232
3582,00;0,0232
3581,00;0,0232
3580,00;0,0232
3579,00;0,0232
3578,00;0,0233
3577,00;0,0233
3576,00;0,0233
3575,00;0,0233
3574,00;0,0232
3573,00;0,0232
3572,00;0,0232
3571,00;0,0231
3570,00;0,0231
3569,00;0,0231
3568,00;0,0231
3567,00;0,0232
3566,00;0,0232
3565,00;0,0232
3564,00;0,0232
3563,00;0,0232
3562,00;0,0232
3561,00;0,0232
3560,00;0,0233
3559,00;0,0233
3558,00;0,0233
3557,00;0,0234
3556,00;0,0234
3555,00;0,0234
3554,00;0,0234
3553,00;0,0233
3552,00;0,0233
3551,00;0,0232
3550,00;0,0232
3549,00;0,0232
3548,00;0,0232
3547,00;0,0233
3546,00;0,0233
3545,00;0,0233
3544,00;0,0233
3543,00;0,0233
3542,00;0,0233
3541,00;0,0234
3540,00;0,0234
3539,00;0,0234
3538,00;0,0233
3537,00;0,0233
3536,00;0,0233
3535,00;0,0233
3534,00;0,0232
3533,00;0,0232
3532,00;0,0232
3531,00;0,0233
3530,00;0,0233
3529,00;0,0233
3528,00;0,0233
3527,00;0,0233
3526,00;0,0233
3525,00;0,0233
3524,00;0,0234
3523,00;0,0234
3522,00;0,0233
3521,00;0,0233
3520,00;0,0233
3519,00;0,0234
3518,00;0,0234
3517,00;0,0234
3516,00;0,0234
3515,00;0,0233
3514,00;0,0233
3513,00;0,0233
3512,00;0,0233
3511,00;0,0232
3510,00;0,0232
3509,00;0,0232
3508,00;0,0231
3507,00;0,0231
3506,00;0,0232
3505,00;0,0232
3504,00;0,0232
3503,00;0,0233
3502,00;0,0233
3501,00;0,0233
3500,00;0,0233
3499,00;0,0233
3498,00;0,0233
3497,00;0,0233
3496,00;0,0233
3495,00;0,0233
3494,00;0,0233
3493,00;0,0233
3492,00;0,0233
3491,00;0,0233
3490,00;0,0234
3489,00;0,0234
3488,00;0,0233
3487,00;0,0233
3486,00;0,0233
3485,00;0,0233
3484,00;0,0233
3483,00;0,0233
3482,00;0,0233
3481,00;0,0233
3480,00;0,0233
3479,00;0,0233
3478,00;0,0234
3477,00;0,0234
3476,00;0,0233
3475,00;0,0233
3474,00;0,0233
3473,00;0,0233
3472,00;0,0233
3471,00;0,0232
3470,00;0,0232
3469,00;0,0233
3468,00;0,0233
3467,00;0,0232
3466,00;0,0232
3465,00;0,0232
3464,00;0,0232
3463,00;0,0232
3462,00;0,0233
3461,00;0,0233
3460,00;0,0233
3459,00;0,0233
3458,00;0,0233
3457,00;0,0233
3456,00;0,0233
3455,00;0,0233
3454,00;0,0233
3453,00;0,0233
3452,00;0,0233
3451,00;0,0233
3450,00;0,0233
3449,00;0,0233
3448,00;0,0233
3447,00;0,0232
3446,00;0,0232
3445,00;0,0232
3444,00;0,0232
3443,00;0,0233
3442,00;0,0233
3441,00;0,0233
3440,00;0,0233
3439,00;0,0233
3438,00;0,0233
3437,00;0,0233
3436,00;0,0233
3435,00;0,0233
3434,00;0,0233
3433,00;0,0233
3432,00;0,0232
3431,00;0,0232
3430,00;0,0232
3429,00;0,0232
3428,00;0,0232
3427,00;0,0232
3426,00;0,0232
3425,00;0,0232
3424,00;0,0232
3423,00;0,0232
3422,00;0,0232
3421,00;0,0232
3420,00;0,0232
3419,00;0,0232
3418,00;0,0232
3417,00;0,0232
3416,00;0,0232
3415,00;0,0232
3414,00;0,0232
3413,00;0,0232
3412,00;0,0231
3411,00;0,0231
3410,00;0,0231
3409,00;0,0231
3408,00;0,0231
3407,00;0,0232
3406,00;0,0232
3405,00;0,0233
3404,00;0,0233
3403,00;0,0233
3402,00;0,0233
3401,00;0,0233
3400,00;0,0233
3399,00;0,0233
3398,00;0,0233
3397,00;0,0233
3396,00;0,0232
3395,00;0,0232
3394,00;0,0232
3393,00;0,0232
3392,00;0,0232
3391,00;0,0232
3390,00;0,0231
3389,00;0,0232
3388,00;0,0232
3387,00;0,0232
3386,00;0,0232
3385,00;0,0232
3384,00;0,0232
3383,00;0,0232
3382,00;0,0232
3381,00;0,0232
3380,00;0,0232
3379,00;0,0232
3378,00;0,0231
3377,00;0,0231
3376,00;0,0232
3375,00;0,0232
3374,00;0,0232
3373,00;0,0232
3372,00;0,0232
3371,00;0,0232
3370,00;0,0232
3369,00;0,0232
3368,00;0,0231
3367,00;0,0231
3366,00;0,0232
3365,00;0,0232
3364,00;0,0232
3363,00;0,0232
3362,00;0,0232
3361,00;0,0232
3360,00;0,0232
3359,00;0,0231
3358,00;0,0231
3357,00;0,0231
3356,00;0,0231
3355,00;0,0231
3354,00;0,0231
3353,00;0,0231
3352,00;0,0231
3351,00;0,0231
3350,00;0,0231
3349,00;0,0231
3348,00;0,0231
3347,00;0,0231
3346,00;0,0231
3345,00;0,0231
3344,00;0,0230
3343,00;0,0230
3342,00;0,0230
3341,00;0,0230
3340,00;0,0230
3339,00;0,0230
3338,00;0,0230
3337,00;0,0230
3336,00;0,0230
3335,00;0,0230
3334,00;0,0231
3333,00;0,0231
3332,00;0,0231
3331,00;0,0231
3330,00;0,0231
3329,00;0,0231
3328,00;0,0231
3327,00;0,0231
3326,00;0,0231
3325,00;0,0231
3324,00;0,0231
3323,00;0,0231
3322,00;0,0231
3321,00;0,0231
3320,00;0,0231
3319,00;0,0231
3318,00;0,0231
3317,00;0,0231
3316,00;0,0231
3315,00;0,0231
3314,00;0,0231
3313,00;0,0232
3312,00;0,0232
3311,00;0,0231
3310,00;0,0231
3309,00;0,0231
3308,00;0,0230
3307,00;0,0230
3306,00;0,0230
3305,00;0,0230
3304,00;0,0230
3303,00;0,0229
3302,00;0,0229
3301,00;0,0229
3300,00;0,0229
3299,00;0,0230
3298,00;0,0230
3297,00;0,0230
3296,00;0,0230
3295,00;0,0230
3294,00;0,0230
3293,00;0,0230
3292,00;0,0230
3291,00;0,0230
3290,00;0,0230
3289,00;0,0230
3288,00;0,0230
3287,00;0,0229
3286,00;0,0229
3285,00;0,0230
3284,00;0,0230
3283,00;0,0230
3282,00;0,0230
3281,00;0,0230
3280,00;0,0230
3279,00;0,0230
3278,00;0,0230
3277,00;0,0230
3276,00;0,0230
3275,00;0,0229
3274,00;0,0229
3273,00;0,0229
3272,00;0,0229
3271,00;0,0229
3270,00;0,0229
3269,00;0,0229
3268,00;0,0229
3267,00;0,0229
3266,00;0,0230
3265,00;0,0230
3264,00;0,0230
3263,00;0,0230
3262,00;0,0230
3261,00;0,0230
3260,00;0,0229
3259,00;0,0229
3258,00;0,0229
3257,00;0,0229
3256,00;0,0229
3255,00;0,0229
3254,00;0,0229
3253,00;0,0229
3252,00;0,0228
3251,00;0,0228
3250,00;0,0228
3249,00;0,0228
3248,00;0,0228
3247,00;0,0228
3246,00;0,0228
3245,00;0,0229
3244,00;0,0229
3243,00;0,0229
3242,00;0,0229
3241,00;0,0229
3240,00;0,0229
3239,00;0,0229
3238,00;0,0229
3237,00;0,0228
3236,00;0,0228
3235,00;0,0228
3234,00;0,0228
3233,00;0,0228
3232,00;0,0228
3231,00;0,0228
3230,00;0,0228
3229,00;0,0228
3228,00;0,0228
3227,00;0,0227
3226,00;0,0227
3225,00;0,0227
3224,00;0,0227
3223,00;0,0227
3222,00;0,0227
3221,00;0,0228
3220,00;0,0228
3219,00;0,0228
3218,00;0,0228
3217,00;0,0228
3216,00;0,0228
3215,00;0,0228
3214,00;0,0228
3213,00;0,0227
3212,00;0,0227
3211,00;0,0227
3210,00;0,0227
3209,00;0,0228
3208,00;0,0228
3207,00;0,0228
3206,00;0,0228
3205,00;0,0227
3204,00;0,0227
3203,00;0,0227
3202,00;0,0227
3201,00;0,0227
3200,00;0,0227
3199,00;0,0227
3198,00;0,0227
3197,00;0,0227
3196,00;0,0227
3195,00;0,0227
3194,00;0,0227
3193,00;0,0227
3192,00;0,0226
3191,00;0,0226
3190,00;0,0226
3189,00;0,0226
3188,00;0,0226
3187,00;0,0227
3186,00;0,0227
3185,00;0,0227
3184,00;0,0227
3183,00;0,0227
3182,00;0,0227
3181,00;0,0227
3180,00;0,0227
3179,00;0,0227
3178,00;0,0227
3177,00;0,0227
3176,00;0,0227
3175,00;0,0227
3174,00;0,0227
3173,00;0,0227
3172,00;0,0227
3171,00;0,0227
3170,00;0,0226
3169,00;0,0226
3168,00;0,0226
3167,00;0,0226
3166,00;0,0225
3165,00;0,0226
3164,00;0,0226
3163,00;0,0226
3162,00;0,0226
3161,00;0,0226
3160,00;0,0226
3159,00;0,0226
3158,00;0,0226
3157,00;0,0226
3156,00;0,0226
3155,00;0,0226
3154,00;0,0226
3153,00;0,0226
3152,00;0,0226
3151,00;0,0226
3150,00;0,0226
3149,00;0,0226
3148,00;0,0226
3147,00;0,0226
3146,00;0,0226
3145,00;0,0226
3144,00;0,0226
3143,00;0,0226
3142,00;0,0226
3141,00;0,0226
3140,00;0,0226
3139,00;0,0226
3138,00;0,0226
3137,00;0,0226
3136,00;0,0226
3135,00;0,0225
3134,00;0,0225
3133,00;0,0225
3132,00;0,0225
3131,00;0,0225
3130,00;0,0225
3129,00;0,0225
3128,00;0,0225
3127,00;0,0225
3126,00;0,0225
3125,00;0,0225
3124,00;0,0226
3123,00;0,0226
3122,00;0,0226
3121,00;0,0226
3120,00;0,0226
3119,00;0,0225
3118,00;0,0225
3117,00;0,0225
3116,00;0,0225
3115,00;0,0225
3114,00;0,0226
3113,00;0,0226
3112,00;0,0226
3111,00;0,0226
3110,00;0,0226
3109,00;0,0225
3108,00;0,0225
3107,00;0,0224
3106,00;0,0225
3105,00;0,0225
3104,00;0,0225
3103,00;0,0225
3102,00;0,0225
3101,00;0,0225
3100,00;0,0225
3099,00;0,0225
3098,00;0,0225
3097,00;0,0225
3096,00;0,0225
3095,00;0,0225
3094,00;0,0224
3093,00;0,0224
3092,00;0,0224
3091,00;0,0224
3090,00;0,0224
3089,00;0,0225
3088,00;0,0225
3087,00;0,0225
3086,00;0,0225
3085,00;0,0225
3084,00;0,0224
3083,00;0,0224
3082,00;0,0224
3081,00;0,0224
3080,00;0,0224
3079,00;0,0224
3078,00;0,0224
3077,00;0,0224
3076,00;0,0225
3075,00;0,0225
3074,00;0,0225
3073,00;0,0225
3072,00;0,0224
3071,00;0,0224
3070,00;0,0224
3069,00;0,0224
3068,00;0,0224
3067,00;0,0224
3066,00;0,0224
3065,00;0,0224
3064,00;0,0224
3063,00;0,0224
3062,00;0,0224
3061,00;0,0224
3060,00;0,0224
3059,00;0,0223
3058,00;0,0223
3057,00;0,0223
3056,00;0,0224
3055,00;0,0224
3054,00;0,0224
3053,00;0,0223
3052,00;0,0223
3051,00;0,0223
3050,00;0,0223
3049,00;0,0223
3048,00;0,0223
3047,00;0,0223
3046,00;0,0223
3045,00;0,0223
3044,00;0,0223
3043,00;0,0223
3042,00;0,0223
3041,00;0,0223
3040,00;0,0223
3039,00;0,0223
3038,00;0,0223
3037,00;0,0223
3036,00;0,0223
3035,00;0,0223
3034,00;0,0223
3033,00;0,0223
3032,00;0,0224
3031,00;0,0224
3030,00;0,0224
3029,00;0,0224
3028,00;0,0224
3027,00;0,0224
3026,00;0,0223
3025,00;0,0223
3024,00;0,0223
3023,00;0,0223
3022,00;0,0223
3021,00;0,0223
3020,00;0,0222
3019,00;0,0223
3018,00;0,0223
3017,00;0,0223
3016,00;0,0223
3015,00;0,0222
3014,00;0,0222
3013,00;0,0222
3012,00;0,0222
3011,00;0,0222
3010,00;0,0222
3009,00;0,0222
3008,00;0,0222
3007,00;0,0222
3006,00;0,0222
3005,00;0,0221
3004,00;0,0221
3003,00;0,0222
3002,00;0,0222
3001,00;0,0222
3000,00;0,0222
2999,00;0,0222
2998,00;0,0222
2997,00;0,0222
2996,00;0,0222
2995,00;0,0222
2994,00;0,0222
2993,00;0,0222
2992,00;0,0222
2991,00;0,0222
2990,00;0,0221
2989,00;0,0221
2988,00;0,0221
2987,00;0,0221
2986,00;0,0221
2985,00;0,0221
2984,00;0,0220
2983,00;0,0220
2982,00;0,0220
2981,00;0,0219
2980,00;0,0219
2979,00;0,0219
2978,00;0,0219
2977,00;0,0219
2976,00;0,0219
2975,00;0,0219
2974,00;0,0219
2973,00;0,0220
2972,00;0,0220
2971,00;0,0220
2970,00;0,0220
2969,00;0,0219
2968,00;0,0219
2967,00;0,0219
2966,00;0,0219
2965,00;0,0218
2964,00;0,0217
2963,00;0,0217
2962,00;0,0217
2961,00;0,0216
2960,00;0,0216
2959,00;0,0216
2958,00;0,0216
2957,00;0,0216
2956,00;0,0216
2955,00;0,0216
2954,00;0,0216
2953,00;0,0216
2952,00;0,0216
2951,00;0,0216
2950,00;0,0216
2949,00;0,0216
2948,00;0,0215
2947,00;0,0215
2946,00;0,0215
2945,00;0,0215
2944,00;0,0214
2943,00;0,0214
2942,00;0,0214
2941,00;0,0213
2940,00;0,0213
2939,00;0,0212
2938,00;0,0211
2937,00;0,0211
2936,00;0,0210
2935,00;0,0209
2934,00;0,0208
2933,00;0,0207
2932,00;0,0207
2931,00;0,0206
2930,00;0,0205
2929,00;0,0205
2928,00;0,0204
2927,00;0,0204
2926,00;0,0204
2925,00;0,0204
2924,00;0,0205
2923,00;0,0205
2922,00;0,0206
2921,00;0,0206
2920,00;0,0207
2919,00;0,0208
2918,00;0,0208
2917,00;0,0209
2916,00;0,0210
2915,00;0,0211
2914,00;0,0211
2913,00;0,0212
2912,00;0,0213
2911,00;0,0213
2910,00;0,0213
2909,00;0,0214
2908,00;0,0214
2907,00;0,0214
2906,00;0,0215
2905,00;0,0215
2904,00;0,0215
2903,00;0,0216
2902,00;0,0216
2901,00;0,0216
2900,00;0,0216
2899,00;0,0216
2898,00;0,0216
2897,00;0,0216
2896,00;0,0216
2895,00;0,0216
2894,00;0,0216
2893,00;0,0216
2892,00;0,0217
2891,00;0,0217
2890,00;0,0217
2889,00;0,0217
2888,00;0,0217
2887,00;0,0217
2886,00;0,0217
2885,00;0,0217
2884,00;0,0217
2883,00;0,0217
2882,00;0,0218
2881,00;0,0218
2880,00;0,0218
2879,00;0,0217
2878,00;0,0217
2877,00;0,0217
2876,00;0,0216
2875,00;0,0215
2874,00;0,0215
2873,00;0,0215
2872,00;0,0216
2871,00;0,0217
2870,00;0,0217
2869,00;0,0217
2868,00;0,0216
2867,00;0,0216
2866,00;0,0215
2865,00;0,0215
2864,00;0,0214
2863,00;0,0214
2862,00;0,0213
2861,00;0,0213
2860,00;0,0212
2859,00;0,0212
2858,00;0,0211
2857,00;0,0211
2856,00;0,0211
2855,00;0,0210
2854,00;0,0210
2853,00;0,0210
2852,00;0,0211
2851,00;0,0212
2850,00;0,0212
2849,00;0,0213
2848,00;0,0214
2847,00;0,0215
2846,00;0,0216
2845,00;0,0216
2844,00;0,0216
2843,00;0,0217
2842,00;0,0217
2841,00;0,0217
2840,00;0,0217
2839,00;0,0217
2838,00;0,0218
2837,00;0,0218
2836,00;0,0218
2835,00;0,0218
2834,00;0,0218
2833,00;0,0218
2832,00;0,0218
2831,00;0,0218
2830,00;0,0218
2829,00;0,0218
2828,00;0,0218
2827,00;0,0218
2826,00;0,0218
2825,00;0,0218
2824,00;0,0218
2823,00;0,0218
2822,00;0,0218
2821,00;0,0217
2820,00;0,0217
2819,00;0,0217
2818,00;0,0217
2817,00;0,0217
2816,00;0,0217
2815,00;0,0217
2814,00;0,0218
2813,00;0,0218
2812,00;0,0218
2811,00;0,0218
2810,00;0,0218
2809,00;0,0218
2808,00;0,0218
2807,00;0,0217
2806,00;0,0217
2805,00;0,0217
2804,00;0,0217
2803,00;0,0217
2802,00;0,0217
2801,00;0,0217
2800,00;0,0217
2799,00;0,0217
2798,00;0,0217
2797,00;0,0217
2796,00;0,0217
2795,00;0,0216
2794,00;0,0216
2793,00;0,0216
2792,00;0,0216
2791,00;0,0216
2790,00;0,0216
2789,00;0,0216
2788,00;0,0217
2787,00;0,0217
2786,00;0,0217
2785,00;0,0217
2784,00;0,0216
2783,00;0,0216
2782,00;0,0216
2781,00;0,0216
2780,00;0,0216
2779,00;0,0216
2778,00;0,0216
2777,00;0,0216
2776,00;0,0216
2775,00;0,0215
2774,00;0,0215
2773,00;0,0215
2772,00;0,0215
2771,00;0,0215
2770,00;0,0215
2769,00;0,0215
2768,00;0,0215
2767,00;0,0215
2766,00;0,0215
2765,00;0,0215
2764,00;0,0215
2763,00;0,0216
2762,00;0,0216
2761,00;0,0216
2760,00;0,0216
2759,00;0,0216
2758,00;0,0216
2757,00;0,0215
2756,00;0,0215
2755,00;0,0215
2754,00;0,0215
2753,00;0,0215
2752,00;0,0215
2751,00;0,0215
2750,00;0,0215
2749,00;0,0215
2748,00;0,0215
2747,00;0,0215
2746,00;0,0215
2745,00;0,0215
2744,00;0,0215
2743,00;0,0215
2742,00;0,0214
2741,00;0,0214
2740,00;0,0214
2739,00;0,0214
2738,00;0,0214
2737,00;0,0214
2736,00;0,0214
2735,00;0,0214
2734,00;0,0214
2733,00;0,0213
2732,00;0,0213
2731,00;0,0213
2730,00;0,0213
2729,00;0,0214
2728,00;0,0214
2727,00;0,0214
2726,00;0,0214
2725,00;0,0214
2724,00;0,0214
2723,00;0,0214
2722,00;0,0214
2721,00;0,0214
2720,00;0,0213
2719,00;0,0213
2718,00;0,0213
2717,00;0,0213
2716,00;0,0213
2715,00;0,0213
2714,00;0,0213
2713,00;0,0213
2712,00;0,0213
2711,00;0,0213
2710,00;0,0213
2709,00;0,0213
2708,00;0,0213
2707,00;0,0213
2706,00;0,0213
2705,00;0,0213
2704,00;0,0213
2703,00;0,0213
2702,00;0,0213
2701,00;0,0213
2700,00;0,0213
2699,00;0,0213
2698,00;0,0213
2697,00;0,0213
2696,00;0,0212
2695,00;0,0212
2694,00;0,0212
2693,00;0,0212
2692,00;0,0212
2691,00;0,0212
2690,00;0,0212
2689,00;0,0212
2688,00;0,0212
2687,00;0,0212
2686,00;0,0212
2685,00;0,0212
2684,00;0,0212
2683,00;0,0212
2682,00;0,0212
2681,00;0,0212
2680,00;0,0212
2679,00;0,0212
2678,00;0,0212
2677,00;0,0212
2676,00;0,0212
2675,00;0,0212
2674,00;0,0212
2673,00;0,0211
2672,00;0,0211
2671,00;0,0211
2670,00;0,0211
2669,00;0,0211
2668,00;0,0211
2667,00;0,0211
2666,00;0,0212
2665,00;0,0212
2664,00;0,0212
2663,00;0,0212
2662,00;0,0212
2661,00;0,0212
2660,00;0,0213
2659,00;0,0213
2658,00;0,0213
2657,00;0,0213
2656,00;0,0213
2655,00;0,0213
2654,00;0,0214
2653,00;0,0214
2652,00;0,0214
2651,00;0,0213
2650,00;0,0213
2649,00;0,0212
2648,00;0,0212
2647,00;0,0211
2646,00;0,0211
2645,00;0,0211
2644,00;0,0211
2643,00;0,0211
2642,00;0,0211
2641,00;0,0211
2640,00;0,0211
2639,00;0,0211
2638,00;0,0210
2637,00;0,0210
2636,00;0,0210
2635,00;0,0210
2634,00;0,0210
2633,00;0,0210
2632,00;0,0210
2631,00;0,0210
2630,00;0,0209
2629,00;0,0209
2628,00;0,0208
2627,00;0,0208
2626,00;0,0209
2625,00;0,0209
2624,00;0,0209
2623,00;0,0209
2622,00;0,0209
2621,00;0,0209
2620,00;0,0209
2619,00;0,0209
2618,00;0,0209
2617,00;0,0208
2616,00;0,0208
2615,00;0,0208
2614,00;0,0208
2613,00;0,0208
2612,00;0,0207
2611,00;0,0206
2610,00;0,0206
2609,00;0,0206
2608,00;0,0206
2607,00;0,0206
2606,00;0,0206
2605,00;0,0207
2604,00;0,0207
2603,00;0,0206
2602,00;0,0206
2601,00;0,0205
2600,00;0,0205
2599,00;0,0206
2598,00;0,0206
2597,00;0,0206
2596,00;0,0207
2595,00;0,0207
2594,00;0,0206
2593,00;0,0206
2592,00;0,0206
2591,00;0,0206
2590,00;0,0206
2589,00;0,0206
2588,00;0,0205
2587,00;0,0205
2586,00;0,0205
2585,00;0,0205
2584,00;0,0205
2583,00;0,0205
2582,00;0,0205
2581,00;0,0205
2580,00;0,0204
2579,00;0,0203
2578,00;0,0203
2577,00;0,0203
2576,00;0,0204
2575,00;0,0204
2574,00;0,0205
2573,00;0,0205
2572,00;0,0204
2571,00;0,0204
2570,00;0,0204
2569,00;0,0203
2568,00;0,0203
2567,00;0,0203
2566,00;0,0203
2565,00;0,0203
2564,00;0,0203
2563,00;0,0203
2562,00;0,0203
2561,00;0,0203
2560,00;0,0203
2559,00;0,0203
2558,00;0,0203
2557,00;0,0203
2556,00;0,0204
2555,00;0,0204
2554,00;0,0203
2553,00;0,0203
2552,00;0,0203
2551,00;0,0202
2550,00;0,0201
2549,00;0,0201
2548,00;0,0201
2547,00;0,0202
2546,00;0,0202
2545,00;0,0202
2544,00;0,0201
2543,00;0,0201
2542,00;0,0200
2541,00;0,0200
2540,00;0,0200
2539,00;0,0200
2538,00;0,0201
2537,00;0,0201
2536,00;0,0202
2535,00;0,0202
2534,00;0,0202
2533,00;0,0202
2532,00;0,0202
2531,00;0,0202
2530,00;0,0201
2529,00;0,0201
2528,00;0,0201
2527,00;0,0201
2526,00;0,0200
2525,00;0,0200
2524,00;0,0200
2523,00;0,0199
2522,00;0,0199
2521,00;0,0199
2520,00;0,0200
2519,00;0,0201
2518,00;0,0201
2517,00;0,0201
2516,00;0,0201
2515,00;0,0200
2514,00;0,0199
2513,00;0,0199
2512,00;0,0199
2511,00;0,0199
2510,00;0,0199
2509,00;0,0199
2508,00;0,0199
2507,00;0,0199
2506,00;0,0200
2505,00;0,0200
2504,00;0,0200
2503,00;0,0200
2502,00;0,0200
2501,00;0,0200
2500,00;0,0200
2499,00;0,0200
2498,00;0,0199
2497,00;0,0199
2496,00;0,0199
2495,00;0,0199
2494,00;0,0199
2493,00;0,0199
2492,00;0,0199
2491,00;0,0199
2490,00;0,0200
2489,00;0,0200
2488,00;0,0200
2487,00;0,0199
2486,00;0,0199
2485,00;0,0198
2484,00;0,0198
2483,00;0,0198
2482,00;0,0198
2481,00;0,0198
2480,00;0,0198
2479,00;0,0198
2478,00;0,0198
2477,00;0,0198
2476,00;0,0198
2475,00;0,0198
2474,00;0,0197
2473,00;0,0197
2472,00;0,0197
2471,00;0,0197
2470,00;0,0197
2469,00;0,0198
2468,00;0,0198
2467,00;0,0197
2466,00;0,0198
2465,00;0,0198
2464,00;0,0198
2463,00;0,0198
2462,00;0,0198
2461,00;0,0198
2460,00;0,0198
2459,00;0,0198
2458,00;0,0198
2457,00;0,0198
2456,00;0,0198
2455,00;0,0197
2454,00;0,0197
2453,00;0,0196
2452,00;0,0196
2451,00;0,0196
2450,00;0,0197
2449,00;0,0197
2448,00;0,0197
2447,00;0,0197
2446,00;0,0197
2445,00;0,0197
2444,00;0,0197
2443,00;0,0197
2442,00;0,0197
2441,00;0,0197
2440,00;0,0197
2439,00;0,0197
2438,00;0,0196
2437,00;0,0195
2436,00;0,0195
2435,00;0,0194
2434,00;0,0194
2433,00;0,0194
2432,00;0,0194
2431,00;0,0194
2430,00;0,0194
2429,00;0,0194
2428,00;0,0195
2427,00;0,0195
2426,00;0,0194
2425,00;0,0194
2424,00;0,0194
2423,00;0,0194
2422,00;0,0194
2421,00;0,0194
2420,00;0,0194
2419,00;0,0194
2418,00;0,0194
2417,00;0,0194
2416,00;0,0194
2415,00;0,0194
2414,00;0,0194
2413,00;0,0195
2412,00;0,0195
2411,00;0,0195
2410,00;0,0195
2409,00;0,0195
2408,00;0,0194
2407,00;0,0193
2406,00;0,0193
2405,00;0,0193
2404,00;0,0193
2403,00;0,0193
2402,00;0,0193
2401,00;0,0193
2400,00;0,0193
2399,00;0,0192
2398,00;0,0192
2397,00;0,0192
2396,00;0,0192
2395,00;0,0192
2394,00;0,0193
2393,00;0,0193
2392,00;0,0192
2391,00;0,0192
2390,00;0,0192
2389,00;0,0192
2388,00;0,0192
2387,00;0,0192
2386,00;0,0193
2385,00;0,0193
2384,00;0,0192
2383,00;0,0191
2382,00;0,0191
2381,00;0,0190
2380,00;0,0190
2379,00;0,0189
2378,00;0,0189
2377,00;0,0189
2376,00;0,0189
2375,00;0,0189
2374,00;0,0189
2373,00;0,0188
2372,00;0,0188
2371,00;0,0188
2370,00;0,0187
2369,00;0,0188
2368,00;0,0188
2367,00;0,0189
2366,00;0,0190
2365,00;0,0189
2364,00;0,0189
2363,00;0,0188
2362,00;0,0187
2361,00;0,0187
2360,00;0,0188
2359,00;0,0188
2358,00;0,0189
2357,00;0,0189
2356,00;0,0189
2355,00;0,0188
2354,00;0,0189
2353,00;0,0189
2352,00;0,0189
2351,00;0,0189
2350,00;0,0189
2349,00;0,0189
2348,00;0,0189
2347,00;0,0190
2346,00;0,0190
2345,00;0,0190
2344,00;0,0190
2343,00;0,0189
2342,00;0,0189
2341,00;0,0190
2340,00;0,0190
2339,00;0,0190
2338,00;0,0189
2337,00;0,0189
2336,00;0,0189
2335,00;0,0189
2334,00;0,0190
2333,00;0,0190
2332,00;0,0190
2331,00;0,0189
2330,00;0,0189
2329,00;0,0190
2328,00;0,0190
2327,00;0,0192
2326,00;0,0193
2325,00;0,0194
2324,00;0,0195
2323,00;0,0195
2322,00;0,0195
2321,00;0,0194
2320,00;0,0193
2319,00;0,0192
2318,00;0,0191
2317,00;0,0191
2316,00;0,0191
2315,00;0,0190
2314,00;0,0190
2313,00;0,0189
2312,00;0,0189
2311,00;0,0189
2310,00;0,0189
2309,00;0,0189
2308,00;0,0189
2307,00;0,0188
2306,00;0,0188
2305,00;0,0188
2304,00;0,0188
2303,00;0,0188
2302,00;0,0188
2301,00;0,0188
2300,00;0,0189
2299,00;0,0189
2298,00;0,0189
2297,00;0,0189
2296,00;0,0190
2295,00;0,0190
2294,00;0,0191
2293,00;0,0192
2292,00;0,0192
2291,00;0,0193
2290,00;0,0193
2289,00;0,0193
2288,00;0,0192
2287,00;0,0192
2286,00;0,0192
2285,00;0,0191
2284,00;0,0191
2283,00;0,0191
2282,00;0,0191
2281,00;0,0191
2280,00;0,0190
2279,00;0,0189
2278,00;0,0189
2277,00;0,0188
2276,00;0,0189
2275,00;0,0190
2274,00;0,0192
2273,00;0,0193
2272,00;0,0193
2271,00;0,0192
2270,00;0,0190
2269,00;0,0188
2268,00;0,0187
2267,00;0,0187
2266,00;0,0186
2265,00;0,0186
2264,00;0,0186
2263,00;0,0187
2262,00;0,0187
2261,00;0,0188
2260,00;0,0189
2259,00;0,0189
2258,00;0,0189
2257,00;0,0189
2256,00;0,0188
2255,00;0,0188
2254,00;0,0187
2253,00;0,0187
2252,00;0,0187
2251,00;0,0187
2250,00;0,0186
2249,00;0,0186
2248,00;0,0185
2247,00;0,0185
2246,00;0,0186
2245,00;0,0186
2244,00;0,0185
2243,00;0,0185
2242,00;0,0185
2241,00;0,0186
2240,00;0,0188
2239,00;0,0189
2238,00;0,0189
2237,00;0,0188
2236,00;0,0189
2235,00;0,0190
2234,00;0,0191
2233,00;0,0190
2232,00;0,0189
2231,00;0,0188
2230,00;0,0188
2229,00;0,0189
2228,00;0,0190
2227,00;0,0190
2226,00;0,0190
2225,00;0,0189
2224,00;0,0188
2223,00;0,0187
2222,00;0,0186
2221,00;0,0185
2220,00;0,0186
2219,00;0,0186
2218,00;0,0186
2217,00;0,0186
2216,00;0,0186
2215,00;0,0186
2214,00;0,0187
2213,00;0,0186
2212,00;0,0185
2211,00;0,0183
2210,00;0,0183
2209,00;0,0183
2208,00;0,0184
2207,00;0,0184
2206,00;0,0184
2205,00;0,0183
2204,00;0,0183
2203,00;0,0183
2202,00;0,0183
2201,00;0,0183
2200,00;0,0181
2199,00;0,0181
2198,00;0,0181
2197,00;0,0182
2196,00;0,0184
2195,00;0,0186
2194,00;0,0186
2193,00;0,0186
2192,00;0,0185
2191,00;0,0185
2190,00;0,0186
2189,00;0,0187
2188,00;0,0188
2187,00;0,0187
2186,00;0,0186
2185,00;0,0184
2184,00;0,0183
2183,00;0,0182
2182,00;0,0182
2181,00;0,0183
2180,00;0,0184
2179,00;0,0183
2178,00;0,0182
2177,00;0,0179
2176,00;0,0177
2175,00;0,0177
2174,00;0,0179
2173,00;0,0181
2172,00;0,0183
2171,00;0,0183
2170,00;0,0183
2169,00;0,0183
2168,00;0,0184
2167,00;0,0184
2166,00;0,0183
2165,00;0,0182
2164,00;0,0183
2163,00;0,0185
2162,00;0,0188
2161,00;0,0187
2160,00;0,0183
2159,00;0,0177
2158,00;0,0172
2157,00;0,0168
2156,00;0,0165
2155,00;0,0164
2154,00;0,0165
2153,00;0,0167
2152,00;0,0170
2151,00;0,0172
2150,00;0,0173
2149,00;0,0174
2148,00;0,0173
2147,00;0,0173
2146,00;0,0172
2145,00;0,0173
2144,00;0,0175
2143,00;0,0176
2142,00;0,0175
2141,00;0,0173
2140,00;0,0170
2139,00;0,0167
2138,00;0,0167
2137,00;0,0167
2136,00;0,0168
2135,00;0,0169
2134,00;0,0169
2133,00;0,0169
2132,00;0,0168
2131,00;0,0168
2130,00;0,0168
2129,00;0,0169
2128,00;0,0170
2127,00;0,0171
2126,00;0,0172
2125,00;0,0173
2124,00;0,0175
2123,00;0,0176
2122,00;0,0176
2121,00;0,0177
2120,00;0,0178
2119,00;0,0178
2118,00;0,0178
2117,00;0,0178
2116,00;0,0177
2115,00;0,0176
2114,00;0,0176
2113,00;0,0176
2112,00;0,0177
2111,00;0,0178
2110,00;0,0179
2109,00;0,0179
2108,00;0,0178
2107,00;0,0178
2106,00;0,0178
2105,00;0,0178
2104,00;0,0178
2103,00;0,0178
2102,00;0,0178
2101,00;0,0177
2100,00;0,0177
2099,00;0,0176
2098,00;0,0175
2097,00;0,0174
2096,00;0,0172
2095,00;0,0170
2094,00;0,0170
2093,00;0,0170
2092,00;0,0171
2091,00;0,0171
2090,00;0,0172
2089,00;0,0173
2088,00;0,0174
2087,00;0,0176
2086,00;0,0177
2085,00;0,0177
2084,00;0,0177
2083,00;0,0176
2082,00;0,0175
2081,00;0,0174
2080,00;0,0174
2079,00;0,0174
2078,00;0,0175
2077,00;0,0176
2076,00;0,0177
2075,00;0,0178
2074,00;0,0179
2073,00;0,0180
2072,00;0,0180
2071,00;0,0180
2070,00;0,0179
2069,00;0,0178
2068,00;0,0176
2067,00;0,0174
2066,00;0,0173
2065,00;0,0174
2064,00;0,0175
2063,00;0,0175
2062,00;0,0175
2061,00;0,0174
2060,00;0,0174
2059,00;0,0175
2058,00;0,0176
2057,00;0,0178
2056,00;0,0180
2055,00;0,0181
2054,00;0,0183
2053,00;0,0184
2052,00;0,0184
2051,00;0,0184
2050,00;0,0183
2049,00;0,0182
2048,00;0,0180
2047,00;0,0179
2046,00;0,0179
2045,00;0,0181
2044,00;0,0185
2043,00;0,0189
2042,00;0,0190
2041,00;0,0187
2040,00;0,0183
2039,00;0,0179
2038,00;0,0177
2037,00;0,0177
2036,00;0,0175
2035,00;0,0173
2034,00;0,0169
2033,00;0,0166
2032,00;0,0164
2031,00;0,0163
2030,00;0,0165
2029,00;0,0170
2028,00;0,0174
2027,00;0,0176
2026,00;0,0175
2025,00;0,0173
2024,00;0,0172
2023,00;0,0171
2022,00;0,0171
2021,00;0,0171
2020,00;0,0171
2019,00;0,0171
2018,00;0,0170
2017,00;0,0169
2016,00;0,0169
2015,00;0,0169
2014,00;0,0170
2013,00;0,0170
2012,00;0,0169
2011,00;0,0168
2010,00;0,0167
2009,00;0,0166
2008,00;0,0167
2007,00;0,0168
2006,00;0,0168
2005,00;0,0167
2004,00;0,0167
2003,00;0,0168
2002,00;0,0168
2001,00;0,0168
2000,00;0,0169
1999,00;0,0170
1998,00;0,0171
1997,00;0,0172
1996,00;0,0171
1995,00;0,0170
1994,00;0,0168
1993,00;0,0167
1992,00;0,0166
1991,00;0,0167
1990,00;0,0169
1989,00;0,0171
1988,00;0,0172
1987,00;0,0172
1986,00;0,0172
1985,00;0,0172
1984,00;0,0172
1983,00;0,0173
1982,00;0,0176
1981,00;0,0179
1980,00;0,0180
1979,00;0,0179
1978,00;0,0176
1977,00;0,0172
1976,00;0,0169
1975,00;0,0167
1974,00;0,0166
1973,00;0,0164
1972,00;0,0162
1971,00;0,0160
1970,00;0,0159
1969,00;0,0160
1968,00;0,0161
1967,00;0,0163
1966,00;0,0163
1965,00;0,0164
1964,00;0,0164
1963,00;0,0165
1962,00;0,0166
1961,00;0,0167
1960,00;0,0167
1959,00;0,0167
1958,00;0,0166
1957,00;0,0166
1956,00;0,0165
1955,00;0,0164
1954,00;0,0164
1953,00;0,0164
1952,00;0,0165
1951,00;0,0165
1950,00;0,0166
1949,00;0,0167
1948,00;0,0168
1947,00;0,0169
1946,00;0,0169
1945,00;0,0169
1944,00;0,0167
1943,00;0,0166
1942,00;0,0164
1941,00;0,0163
1940,00;0,0164
1939,00;0,0164
1938,00;0,0164
1937,00;0,0164
1936,00;0,0163
1935,00;0,0161
1934,00;0,0160
1933,00;0,0159
1932,00;0,0161
1931,00;0,0163
1930,00;0,0164
1929,00;0,0165
1928,00;0,0164
1927,00;0,0164
1926,00;0,0163
1925,00;0,0163
1924,00;0,0163
1923,00;0,0163
1922,00;0,0164
1921,00;0,0165
1920,00;0,0166
1919,00;0,0166
1918,00;0,0165
1917,00;0,0164
1916,00;0,0163
1915,00;0,0163
1914,00;0,0164
1913,00;0,0165
1912,00;0,0164
1911,00;0,0163
1910,00;0,0162
1909,00;0,0161
1908,00;0,0161
1907,00;0,0161
1906,00;0,0163
1905,00;0,0164
1904,00;0,0164
1903,00;0,0163
1902,00;0,0163
1901,00;0,0163
1900,00;0,0162
1899,00;0,0162
1898,00;0,0162
1897,00;0,0161
1896,00;0,0161
1895,00;0,0161
1894,00;0,0161
1893,00;0,0161
1892,00;0,0161
1891,00;0,0161
1890,00;0,0162
1889,00;0,0162
1888,00;0,0163
1887,00;0,0163
1886,00;0,0162
1885,00;0,0162
1884,00;0,0161
1883,00;0,0161
1882,00;0,0161
1881,00;0,0160
1880,00;0,0159
1879,00;0,0159
1878,00;0,0159
1877,00;0,0160
1876,00;0,0161
1875,00;0,0161
1874,00;0,0161
1873,00;0,0160
1872,00;0,0159
1871,00;0,0159
1870,00;0,0158
1869,00;0,0159
1868,00;0,0159
1867,00;0,0160
1866,00;0,0160
1865,00;0,0159
1864,00;0,0159
1863,00;0,0159
1862,00;0,0159
1861,00;0,0160
1860,00;0,0160
1859,00;0,0160
1858,00;0,0160
1857,00;0,0160
1856,00;0,0159
1855,00;0,0159
1854,00;0,0159
1853,00;0,0159
1852,00;0,0159
1851,00;0,0159
1850,00;0,0159
1849,00;0,0159
1848,00;0,0159
1847,00;0,0160
1846,00;0,0160
1845,00;0,0160
1844,00;0,0159
1843,00;0,0159
1842,00;0,0160
1841,00;0,0160
1840,00;0,0160
1839,00;0,0159
1838,00;0,0159
1837,00;0,0159
1836,00;0,0159
1835,00;0,0159
1834,00;0,0158
1833,00;0,0158
1832,00;0,0158
1831,00;0,0158
1830,00;0,0158
1829,00;0,0158
1828,00;0,0158
1827,00;0,0157
1826,00;0,0157
1825,00;0,0157
1824,00;0,0157
1823,00;0,0157
1822,00;0,0157
1821,00;0,0157
1820,00;0,0157
1819,00;0,0157
1818,00;0,0156
1817,00;0,0156
1816,00;0,0156
1815,00;0,0157
1814,00;0,0157
1813,00;0,0157
1812,00;0,0157
1811,00;0,0157
1810,00;0,0157
1809,00;0,0158
1808,00;0,0158
1807,00;0,0158
1806,00;0,0158
1805,00;0,0159
1804,00;0,0159
1803,00;0,0160
1802,00;0,0159
1801,00;0,0159
1800,00;0,0158
1799,00;0,0158
1798,00;0,0158
1797,00;0,0158
1796,00;0,0159
1795,00;0,0159
1794,00;0,0160
1793,00;0,0160
1792,00;0,0160
1791,00;0,0160
1790,00;0,0159
1789,00;0,0159
1788,00;0,0159
1787,00;0,0158
1786,00;0,0158
1785,00;0,0158
1784,00;0,0158
1783,00;0,0158
1782,00;0,0158
1781,00;0,0159
1780,00;0,0159
1779,00;0,0158
1778,00;0,0158
1777,00;0,0158
1776,00;0,0158
1775,00;0,0158
1774,00;0,0159
1773,00;0,0159
1772,00;0,0159
1771,00;0,0159
1770,00;0,0159
1769,00;0,0159
1768,00;0,0159
1767,00;0,0160
1766,00;0,0160
1765,00;0,0160
1764,00;0,0160
1763,00;0,0160
1762,00;0,0161
1761,00;0,0161
1760,00;0,0161
1759,00;0,0161
1758,00;0,0161
1757,00;0,0160
1756,00;0,0160
1755,00;0,0160
1754,00;0,0160
1753,00;0,0160
1752,00;0,0160
1751,00;0,0160
1750,00;0,0159
1749,00;0,0159
1748,00;0,0159
1747,00;0,0160
1746,00;0,0160
1745,00;0,0161
1744,00;0,0161
1743,00;0,0162
1742,00;0,0162
1741,00;0,0161
1740,00;0,0161
1739,00;0,0161
1738,00;0,0162
1737,00;0,0162
1736,00;0,0162
1735,00;0,0161
1734,00;0,0161
1733,00;0,0161
1732,00;0,0161
1731,00;0,0161
1730,00;0,0161
1729,00;0,0161
1728,00;0,0161
1727,00;0,0161
1726,00;0,0161
1725,00;0,0162
1724,00;0,0162
1723,00;0,0162
1722,00;0,0161
1721,00;0,0160
1720,00;0,0159
1719,00;0,0158
1718,00;0,0158
1717,00;0,0158
1716,00;0,0158
1715,00;0,0158
1714,00;0,0157
1713,00;0,0157
1712,00;0,0157
1711,00;0,0156
1710,00;0,0156
1709,00;0,0155
1708,00;0,0155
1707,00;0,0155
1706,00;0,0156
1705,00;0,0156
1704,00;0,0156
1703,00;0,0155
1702,00;0,0155
1701,00;0,0155
1700,00;0,0155
1699,00;0,0154
1698,00;0,0154
1697,00;0,0154
1696,00;0,0154
1695,00;0,0154
1694,00;0,0153
1693,00;0,0153
1692,00;0,0153
1691,00;0,0153
1690,00;0,0154
1689,00;0,0154
1688,00;0,0154
1687,00;0,0154
1686,00;0,0153
1685,00;0,0154
1684,00;0,0153
1683,00;0,0153
1682,00;0,0152
1681,00;0,0152
1680,00;0,0152
1679,00;0,0151
1678,00;0,0151
1677,00;0,0151
1676,00;0,0152
1675,00;0,0152
1674,00;0,0151
1673,00;0,0151
1672,00;0,0151
1671,00;0,0151
1670,00;0,0151
1669,00;0,0152
1668,00;0,0152
1667,00;0,0152
1666,00;0,0152
1665,00;0,0152
1664,00;0,0152
1663,00;0,0152
1662,00;0,0151
1661,00;0,0151
1660,00;0,0151
1659,00;0,0151
1658,00;0,0151
1657,00;0,0150
1656,00;0,0150
1655,00;0,0150
1654,00;0,0151
1653,00;0,0152
1652,00;0,0152
1651,00;0,0152
1650,00;0,0152
1649,00;0,0152
1648,00;0,0152
1647,00;0,0152
1646,00;0,0152
1645,00;0,0152
1644,00;0,0152
1643,00;0,0153
1642,00;0,0153
1641,00;0,0152
1640,00;0,0152
1639,00;0,0152
1638,00;0,0152
1637,00;0,0152
1636,00;0,0152
1635,00;0,0152
1634,00;0,0151
1633,00;0,0151
1632,00;0,0151
1631,00;0,0151
1630,00;0,0150
1629,00;0,0151
1628,00;0,0151
1627,00;0,0151
1626,00;0,0151
1625,00;0,0151
1624,00;0,0151
1623,00;0,0151
1622,00;0,0151
1621,00;0,0151
1620,00;0,0151
1619,00;0,0151
1618,00;0,0151
1617,00;0,0150
1616,00;0,0150
1615,00;0,0150
1614,00;0,0149
1613,00;0,0149
1612,00;0,0149
1611,00;0,0149
1610,00;0,0149
1609,00;0,0149
1608,00;0,0150
1607,00;0,0150
1606,00;0,0149
1605,00;0,0149
1604,00;0,0149
1603,00;0,0149
1602,00;0,0149
1601,00;0,0149
1600,00;0,0149
1599,00;0,0149
1598,00;0,0149
1597,00;0,0149
1596,00;0,0149
1595,00;0,0149
1594,00;0,0148
1593,00;0,0148
1592,00;0,0148
1591,00;0,0148
1590,00;0,0149
1589,00;0,0149
1588,00;0,0149
1587,00;0,0149
1586,00;0,0149
1585,00;0,0150
1584,00;0,0150
1583,00;0,0150
1582,00;0,0149
1581,00;0,0149
1580,00;0,0148
1579,00;0,0148
1578,00;0,0148
1577,00;0,0148
1576,00;0,0148
1575,00;0,0148
1574,00;0,0148
1573,00;0,0149
1572,00;0,0149
1571,00;0,0150
1570,00;0,0150
1569,00;0,0150
1568,00;0,0150
1567,00;0,0150
1566,00;0,0149
1565,00;0,0149
1564,00;0,0149
1563,00;0,0149
1562,00;0,0149
1561,00;0,0149
1560,00;0,0149
1559,00;0,0150
1558,00;0,0150
1557,00;0,0150
1556,00;0,0150
1555,00;0,0150
1554,00;0,0150
1553,00;0,0150
1552,00;0,0150
1551,00;0,0151
1550,00;0,0151
1549,00;0,0151
1548,00;0,0151
1547,00;0,0152
1546,00;0,0152
1545,00;0,0153
1544,00;0,0153
1543,00;0,0154
1542,00;0,0155
1541,00;0,0156
1540,00;0,0157
1539,00;0,0157
1538,00;0,0158
1537,00;0,0158
1536,00;0,0159
1535,00;0,0160
1534,00;0,0161
1533,00;0,0162
1532,00;0,0163
1531,00;0,0164
1530,00;0,0164
1529,00;0,0165
1528,00;0,0167
1527,00;0,0168
1526,00;0,0169
1525,00;0,0170
1524,00;0,0171
1523,00;0,0172
1522,00;0,0174
1521,00;0,0175
1520,00;0,0176
1519,00;0,0178
1518,00;0,0179
1517,00;0,0181
1516,00;0,0183
1515,00;0,0184
1514,00;0,0185
1513,00;0,0186
1512,00;0,0187
1511,00;0,0188
1510,00;0,0189
1509,00;0,0191
1508,00;0,0193
1507,00;0,0197
1506,00;0,0200
1505,00;0,0202
1504,00;0,0204
1503,00;0,0205
1502,00;0,0206
1501,00;0,0208
1500,00;0,0209
1499,00;0,0211
1498,00;0,0213
1497,00;0,0216
1496,00;0,0218
1495,00;0,0220
1494,00;0,0222
1493,00;0,0224
1492,00;0,0225
1491,00;0,0228
1490,00;0,0230
1489,00;0,0233
1488,00;0,0235
1487,00;0,0237
1486,00;0,0239
1485,00;0,0240
1484,00;0,0242
1483,00;0,0243
1482,00;0,0245
1481,00;0,0246
1480,00;0,0248
1479,00;0,0248
1478,00;0,0250
1477,00;0,0251
1476,00;0,0253
1475,00;0,0255
1474,00;0,0256
1473,00;0,0259
1472,00;0,0261
1471,00;0,0262
1470,00;0,0263
1469,00;0,0263
1468,00;0,0264
1467,00;0,0265
1466,00;0,0266
1465,00;0,0268
1464,00;0,0270
1463,00;0,0272
1462,00;0,0272
1461,00;0,0273
1460,00;0,0273
1459,00;0,0274
1458,00;0,0276
1457,00;0,0280
1456,00;0,0283
1455,00;0,0284
1454,00;0,0286
1453,00;0,0287
1452,00;0,0288
1451,00;0,0289
1450,00;0,0290
1449,00;0,0292
1448,00;0,0294
1447,00;0,0296
1446,00;0,0297
1445,00;0,0298
1444,00;0,0299
1443,00;0,0300
1442,00;0,0302
1441,00;0,0303
1440,00;0,0304
1439,00;0,0305
1438,00;0,0306
1437,00;0,0308
1436,00;0,0310
1435,00;0,0312
1434,00;0,0313
1433,00;0,0314
1432,00;0,0315
1431,00;0,0316
1430,00;0,0317
1429,00;0,0319
1428,00;0,0320
1427,00;0,0320
1426,00;0,0319
1425,00;0,0319
1424,00;0,0319
1423,00;0,0319
1422,00;0,0318
1421,00;0,0317
1420,00;0,0316
1419,00;0,0315
1418,00;0,0313
1417,00;0,0311
1416,00;0,0308
1415,00;0,0305
1414,00;0,0300
1413,00;0,0295
1412,00;0,0290
1411,00;0,0284
1410,00;0,0278
1409,00;0,0271
1408,00;0,0264
1407,00;0,0258
1406,00;0,0252
1405,00;0,0246
1404,00;0,0241
1403,00;0,0237
1402,00;0,0233
1401,00;0,0229
1400,00;0,0225
1399,00;0,0221
1398,00;0,0217
1397,00;0,0214
1396,00;0,0210
1395,00;0,0207
1394,00;0,0203
1393,00;0,0200
1392,00;0,0197
1391,00;0,0194
1390,00;0,0192
1389,00;0,0189
1388,00;0,0187
1387,00;0,0185
1386,00;0,0184
1385,00;0,0182
1384,00;0,0182
1383,00;0,0181
1382,00;0,0180
1381,00;0,0179
1380,00;0,0177
1379,00;0,0176
1378,00;0,0176
1377,00;0,0175
1376,00;0,0174
1375,00;0,0174
1374,00;0,0173
1373,00;0,0172
1372,00;0,0171
1371,00;0,0170
1370,00;0,0170
1369,00;0,0170
1368,00;0,0169
1367,00;0,0169
1366,00;0,0168
1365,00;0,0167
1364,00;0,0166
1363,00;0,0166
1362,00;0,0165
1361,00;0,0164
1360,00;0,0163
1359,00;0,0162
1358,00;0,0162
1357,00;0,0161
1356,00;0,0161
1355,00;0,0161
1354,00;0,0160
1353,00;0,0160
1352,00;0,0159
1351,00;0,0158
1350,00;0,0157
1349,00;0,0156
1348,00;0,0156
1347,00;0,0155
1346,00;0,0154
1345,00;0,0154
1344,00;0,0153
1343,00;0,0152
1342,00;0,0152
1341,00;0,0151
1340,00;0,0151
1339,00;0,0150
1338,00;0,0150
1337,00;0,0150
1336,00;0,0149
1335,00;0,0149
1334,00;0,0148
1333,00;0,0147
1332,00;0,0147
1331,00;0,0146
1330,00;0,0146
1329,00;0,0145
1328,00;0,0145
1327,00;0,0145
1326,00;0,0145
1325,00;0,0144
1324,00;0,0144
1323,00;0,0143
1322,00;0,0143
1321,00;0,0143
1320,00;0,0143
1319,00;0,0143
1318,00;0,0142
1317,00;0,0142
1316,00;0,0142
1315,00;0,0142
1314,00;0,0141
1313,00;0,0141
1312,00;0,0141
1311,00;0,0140
1310,00;0,0140
1309,00;0,0139
1308,00;0,0139
1307,00;0,0139
1306,00;0,0139
1305,00;0,0139
1304,00;0,0138
1303,00;0,0138
1302,00;0,0138
1301,00;0,0138
1300,00;0,0138
1299,00;0,0138
1298,00;0,0138
1297,00;0,0138
1296,00;0,0137
1295,00;0,0137
1294,00;0,0136
1293,00;0,0136
1292,00;0,0136
1291,00;0,0135
1290,00;0,0135
1289,00;0,0135
1288,00;0,0134
1287,00;0,0134
1286,00;0,0134
1285,00;0,0134
1284,00;0,0134
1283,00;0,0133
1282,00;0,0133
1281,00;0,0133
1280,00;0,0133
1279,00;0,0133
1278,00;0,0133
1277,00;0,0133
1276,00;0,0133
1275,00;0,0133
1274,00;0,0132
1273,00;0,0132
1272,00;0,0132
1271,00;0,0132
1270,00;0,0132
1269,00;0,0132
1268,00;0,0131
1267,00;0,0131
1266,00;0,0131
1265,00;0,0131
1264,00;0,0131
1263,00;0,0131
1262,00;0,0131
1261,00;0,0132
1260,00;0,0132
1259,00;0,0132
1258,00;0,0132
1257,00;0,0132
1256,00;0,0132
1255,00;0,0132
1254,00;0,0132
1253,00;0,0132
1252,00;0,0132
1251,00;0,0132
1250,00;0,0132
1249,00;0,0132
1248,00;0,0132
1247,00;0,0133
1246,00;0,0133
1245,00;0,0134
1244,00;0,0134
1243,00;0,0134
1242,00;0,0135
1241,00;0,0135
1240,00;0,0136
1239,00;0,0137
1238,00;0,0137
1237,00;0,0138
1236,00;0,0139
1235,00;0,0139
1234,00;0,0140
1233,00;0,0140
1232,00;0,0141
1231,00;0,0142
1230,00;0,0142
1229,00;0,0142
1228,00;0,0142
1227,00;0,0142
1226,00;0,0142
1225,00;0,0142
1224,00;0,0142
1223,00;0,0142
1222,00;0,0141
1221,00;0,0142
1220,00;0,0142
1219,00;0,0144
1218,00;0,0144
1217,00;0,0145
1216,00;0,0145
1215,00;0,0144
1214,00;0,0144
1213,00;0,0144
1212,00;0,0144
1211,00;0,0144
1210,00;0,0145
1209,00;0,0146
1208,00;0,0146
1207,00;0,0147
1206,00;0,0147
1205,00;0,0146
1204,00;0,0146
1203,00;0,0146
1202,00;0,0146
1201,00;0,0146
1200,00;0,0145
1199,00;0,0145
1198,00;0,0145
1197,00;0,0145
1196,00;0,0144
1195,00;0,0144
1194,00;0,0144
1193,00;0,0145
1192,00;0,0145
1191,00;0,0145
1190,00;0,0145
1189,00;0,0145
1188,00;0,0145
1187,00;0,0145
1186,00;0,0145
1185,00;0,0145
1184,00;0,0145
1183,00;0,0145
1182,00;0,0145
1181,00;0,0145
1180,00;0,0145
1179,00;0,0145
1178,00;0,0146
1177,00;0,0146
1176,00;0,0146
1175,00;0,0147
1174,00;0,0147
1173,00;0,0147
1172,00;0,0147
1171,00;0,0147
1170,00;0,0147
1169,00;0,0147
1168,00;0,0147
1167,00;0,0148
1166,00;0,0148
1165,00;0,0147
1164,00;0,0147
1163,00;0,0146
1162,00;0,0147
1161,00;0,0147
1160,00;0,0148
1159,00;0,0148
1158,00;0,0148
1157,00;0,0148
1156,00;0,0148
1155,00;0,0148
1154,00;0,0148
1153,00;0,0148
1152,00;0,0149
1151,00;0,0149
1150,00;0,0149
1149,00;0,0149
1148,00;0,0149
1147,00;0,0149
1146,00;0,0149
1145,00;0,0149
1144,00;0,0149
1143,00;0,0149
1142,00;0,0149
1141,00;0,0149
1140,00;0,0150
1139,00;0,0150
1138,00;0,0150
1137,00;0,0150
1136,00;0,0150
1135,00;0,0150
1134,00;0,0150
1133,00;0,0150
1132,00;0,0150
1131,00;0,0151
1130,00;0,0151
1129,00;0,0151
1128,00;0,0151
1127,00;0,0151
1126,00;0,0150
1125,00;0,0149
1124,00;0,0149
1123,00;0,0149
1122,00;0,0149
1121,00;0,0149
1120,00;0,0149
1119,00;0,0149
1118,00;0,0150
1117,00;0,0150
1116,00;0,0151
1115,00;0,0151
1114,00;0,0151
1113,00;0,0151
1112,00;0,0151
1111,00;0,0151
1110,00;0,0151
1109,00;0,0151
1108,00;0,0152
1107,00;0,0152
1106,00;0,0152
1105,00;0,0153
1104,00;0,0153
1103,00;0,0153
1102,00;0,0153
1101,00;0,0153
1100,00;0,0153
1099,00;0,0153
1098,00;0,0154
1097,00;0,0155
1096,00;0,0155
1095,00;0,0156
1094,00;0,0156
1093,00;0,0156
1092,00;0,0156
1091,00;0,0156
1090,00;0,0156
1089,00;0,0157
1088,00;0,0156
1087,00;0,0156
1086,00;0,0156
1085,00;0,0156
1084,00;0,0156
1083,00;0,0155
1082,00;0,0155
1081,00;0,0155
1080,00;0,0155
1079,00;0,0155
1078,00;0,0155
1077,00;0,0155
1076,00;0,0155
1075,00;0,0155
1074,00;0,0155
1073,00;0,0155
1072,00;0,0155
1071,00;0,0155
1070,00;0,0154
1069,00;0,0154
1068,00;0,0154
1067,00;0,0154
1066,00;0,0153
1065,00;0,0152
1064,00;0,0152
1063,00;0,0151
1062,00;0,0151
1061,00;0,0151
1060,00;0,0151
1059,00;0,0151
1058,00;0,0151
1057,00;0,0150
1056,00;0,0150
1055,00;0,0150
1054,00;0,0149
1053,00;0,0149
1052,00;0,0149
1051,00;0,0149
1050,00;0,0148
1049,00;0,0147
1048,00;0,0147
1047,00;0,0146
1046,00;0,0146
1045,00;0,0146
1044,00;0,0146
1043,00;0,0146
1042,00;0,0146
1041,00;0,0147
1040,00;0,0147
1039,00;0,0147
1038,00;0,0147
1037,00;0,0146
1036,00;0,0145
1035,00;0,0145
1034,00;0,0144
1033,00;0,0143
1032,00;0,0143
1031,00;0,0143
1030,00;0,0144
1029,00;0,0144
1028,00;0,0144
1027,00;0,0144
1026,00;0,0143
1025,00;0,0143
1024,00;0,0143
1023,00;0,0143
1022,00;0,0143
1021,00;0,0143
1020,00;0,0143
1019,00;0,0143
1018,00;0,0142
1017,00;0,0142
1016,00;0,0141
1015,00;0,0141
1014,00;0,0141
1013,00;0,0142
1012,00;0,0142
1011,00;0,0142
1010,00;0,0142
1009,00;0,0141
1008,00;0,0141
1007,00;0,0140
1006,00;0,0140
1005,00;0,0140
1004,00;0,0140
1003,00;0,0140
1002,00;0,0140
1001,00;0,0140
1000,00;0,0140
999,00;0,0140
998,00;0,0140
997,00;0,0140
996,00;0,0140
995,00;0,0140
994,00;0,0139
993,00;0,0139
992,00;0,0139
991,00;0,0139
990,00;0,0139
989,00;0,0139
988,00;0,0139
987,00;0,0139
986,00;0,0140
985,00;0,0139
984,00;0,0139
983,00;0,0138
982,00;0,0138
981,00;0,0137
980,00;0,0137
979,00;0,0137
978,00;0,0137
977,00;0,0137
976,00;0,0137
975,00;0,0137
974,00;0,0137
973,00;0,0137
972,00;0,0137
971,00;0,0136
970,00;0,0136
969,00;0,0136
968,00;0,0136
967,00;0,0136
966,00;0,0136
965,00;0,0136
964,00;0,0136
963,00;0,0136
962,00;0,0136
961,00;0,0136
960,00;0,0136
959,00;0,0135
958,00;0,0134
957,00;0,0133
956,00;0,0133
955,00;0,0133
954,00;0,0133
953,00;0,0133
952,00;0,0133
951,00;0,0133
950,00;0,0134
949,00;0,0134
948,00;0,0134
947,00;0,0134
946,00;0,0133
945,00;0,0133
944,00;0,0133
943,00;0,0132
942,00;0,0132
941,00;0,0132
940,00;0,0132
939,00;0,0132
938,00;0,0132
937,00;0,0131
936,00;0,0131
935,00;0,0131
934,00;0,0130
933,00;0,0130
932,00;0,0130
931,00;0,0130
930,00;0,0130
929,00;0,0130
928,00;0,0130
927,00;0,0131
926,00;0,0132
925,00;0,0133
924,00;0,0133
923,00;0,0133
922,00;0,0133
921,00;0,0133
920,00;0,0133
919,00;0,0132
918,00;0,0132
917,00;0,0131
916,00;0,0131
915,00;0,0131
914,00;0,0130
913,00;0,0129
912,00;0,0128
911,00;0,0127
910,00;0,0126
909,00;0,0126
908,00;0,0125
907,00;0,0125
906,00;0,0125
905,00;0,0126
904,00;0,0127
903,00;0,0127
902,00;0,0127
901,00;0,0126
900,00;0,0126
899,00;0,0126
898,00;0,0127
897,00;0,0127
896,00;0,0127
895,00;0,0127
894,00;0,0127
893,00;0,0126
892,00;0,0126
891,00;0,0125
890,00;0,0124
889,00;0,0124
888,00;0,0125
887,00;0,0126
886,00;0,0128
885,00;0,0130
884,00;0,0134
883,00;0,0140
882,00;0,0149
881,00;0,0160
880,00;0,0172
879,00;0,0185
878,00;0,0195
877,00;0,0201
876,00;0,0201
875,00;0,0196
874,00;0,0186
873,00;0,0173
872,00;0,0160
871,00;0,0149
870,00;0,0141
869,00;0,0136
868,00;0,0132
867,00;0,0130
866,00;0,0128
865,00;0,0126
864,00;0,0125
863,00;0,0124
862,00;0,0123
861,00;0,0122
860,00;0,0122
859,00;0,0123
858,00;0,0123
857,00;0,0123
856,00;0,0122
855,00;0,0121
854,00;0,0120
853,00;0,0119
852,00;0,0119
851,00;0,0118
850,00;0,0118
849,00;0,0117
848,00;0,0117
847,00;0,0117
846,00;0,0116
845,00;0,0116
844,00;0,0116
843,00;0,0116
842,00;0,0116
841,00;0,0115
840,00;0,0114
839,00;0,0114
838,00;0,0113
837,00;0,0113
836,00;0,0114
835,00;0,0114
834,00;0,0114
833,00;0,0114
832,00;0,0113
831,00;0,0113
830,00;0,0112
829,00;0,0112
828,00;0,0113
827,00;0,0113
826,00;0,0114
825,00;0,0114
824,00;0,0115
823,00;0,0115
822,00;0,0115
821,00;0,0115
820,00;0,0115
819,00;0,0115
818,00;0,0115
817,00;0,0115
816,00;0,0115
815,00;0,0115
814,00;0,0115
813,00;0,0114
812,00;0,0114
811,00;0,0114
810,00;0,0114
809,00;0,0115
808,00;0,0115
807,00;0,0116
806,00;0,0116
805,00;0,0116
804,00;0,0116
803,00;0,0117
802,00;0,0118
801,00;0,0119
800,00;0,0120
799,00;0,0121
798,00;0,0122
797,00;0,0124
796,00;0,0126
795,00;0,0126
794,00;0,0126
793,00;0,0126
792,00;0,0127
791,00;0,0128
790,00;0,0129
789,00;0,0130
788,00;0,0130
787,00;0,0130
786,00;0,0131
785,00;0,0132
784,00;0,0133
783,00;0,0134
782,00;0,0134
781,00;0,0134
780,00;0,0135
779,00;0,0136
778,00;0,0138
777,00;0,0140
776,00;0,0142
775,00;0,0144
774,00;0,0145
773,00;0,0147
772,00;0,0148
771,00;0,0149
770,00;0,0149
769,00;0,0149
768,00;0,0151
767,00;0,0152
766,00;0,0154
765,00;0,0157
764,00;0,0160
763,00;0,0163
762,00;0,0166
761,00;0,0169
760,00;0,0172
759,00;0,0176
758,00;0,0179
757,00;0,0182
756,00;0,0185
755,00;0,0188
754,00;0,0191
753,00;0,0197
752,00;0,0203
751,00;0,0210
750,00;0,0216
749,00;0,0222
748,00;0,0227
747,00;0,0234
746,00;0,0241
745,00;0,0249
744,00;0,0259
743,00;0,0269
742,00;0,0280
741,00;0,0291
740,00;0,0303
739,00;0,0315
738,00;0,0327
737,00;0,0339
736,00;0,0351
735,00;0,0362
734,00;0,0373
733,00;0,0383
732,00;0,0395
731,00;0,0406
730,00;0,0416
729,00;0,0425
728,00;0,0434
727,00;0,0440
726,00;0,0445
725,00;0,0448
724,00;0,0450
723,00;0,0452
722,00;0,0456
721,00;0,0459
720,00;0,0463
719,00;0,0468
718,00;0,0474
717,00;0,0483
716,00;0,0493
715,00;0,0505
714,00;0,0516
713,00;0,0527
712,00;0,0537
711,00;0,0547
710,00;0,0558
709,00;0,0567
708,00;0,0576
707,00;0,0584
706,00;0,0592
705,00;0,0601
704,00;0,0610
703,00;0,0620
702,00;0,0631
701,00;0,0642
700,00;0,0654
699,00;0,0666
698,00;0,0677
697,00;0,0689
696,00;0,0700
695,00;0,0710
694,00;0,0718
693,00;0,0724
692,00;0,0727
691,00;0,0727
690,00;0,0726
689,00;0,0724
688,00;0,0722
687,00;0,0719
686,00;0,0714
685,00;0,0708
684,00;0,0703
683,00;0,0697
682,00;0,0691
681,00;0,0686
680,00;0,0681
679,00;0,0677
678,00;0,0674
677,00;0,0673
676,00;0,0673
675,00;0,0673
674,00;0,0673
673,00;0,0675
672,00;0,0677
671,00;0,0679
670,00;0,0681
669,00;0,0686
668,00;0,0695
667,00;0,0705
666,00;0,0711
665,00;0,0716
664,00;0,0722
663,00;0,0729
662,00;0,0736
661,00;0,0742
660,00;0,0750
659,00;0,0760
658,00;0,0770
657,00;0,0782
656,00;0,0793
655,00;0,0806
654,00;0,0819
653,00;0,0833
652,00;0,0847
651,00;0,0860
650,00;0,0872
649,00;0,0885
648,00;0,0899
647,00;0,0915
646,00;0,0931
645,00;0,0949
644,00;0,0968
643,00;0,0987
642,00;0,1005
641,00;0,1022
640,00;0,1039
639,00;0,1056
638,00;0,1073
637,00;0,1089
636,00;0,1104
635,00;0,1118
634,00;0,1129
633,00;0,1138
632,00;0,1145
631,00;0,1150
630,00;0,1152
629,00;0,1154
628,00;0,1157
627,00;0,1158
626,00;0,1158
625,00;0,1158
624,00;0,1161
623,00;0,1164
622,00;0,1168
621,00;0,1171
620,00;0,1174
619,00;0,1176
618,00;0,1179
617,00;0,1184
616,00;0,1191
615,00;0,1198
614,00;0,1204
613,00;0,1210
612,00;0,1217
611,00;0,1224
610,00;0,1229
609,00;0,1234
608,00;0,1241
607,00;0,1247
606,00;0,1253
605,00;0,1260
604,00;0,1267
603,00;0,1274
602,00;0,1281
601,00;0,1287
600,00;0,1294
599,00;0,1299
598,00;0,1304
597,00;0,1310
596,00;0,1319
595,00;0,1329
594,00;0,1339
593,00;0,1350
592,00;0,1363
591,00;0,1376
590,00;0,1388
589,00;0,1399
588,00;0,1411
587,00;0,1422
586,00;0,1433
585,00;0,1443
584,00;0,1455
583,00;0,1466
582,00;0,1475
581,00;0,1483
580,00;0,1490
579,00;0,1495
578,00;0,1497
577,00;0,1499
576,00;0,1504
575,00;0,1509
574,00;0,1513
573,00;0,1517
572,00;0,1522
571,00;0,1527
570,00;0,1533
569,00;0,1542
568,00;0,1554
567,00;0,1567
566,00;0,1579
565,00;0,1591
564,00;0,1605
563,00;0,1618
562,00;0,1632
561,00;0,1649
560,00;0,1669
559,00;0,1691
558,00;0,1711
557,00;0,1731
556,00;0,1752
555,00;0,1774
554,00;0,1795
553,00;0,1814
552,00;0,1832
551,00;0,1847
550,00;0,1859
549,00;0,1870
548,00;0,1882
547,00;0,1892
546,00;0,1900
545,00;0,1907
544,00;0,1915
543,00;0,1921
542,00;0,1923
541,00;0,1921
540,00;0,1918
539,00;0,1912
538,00;0,1902
537,00;0,1891
536,00;0,1880
535,00;0,1869
534,00;0,1858
533,00;0,1850
532,00;0,1842
531,00;0,1830
530,00;0,1814
529,00;0,1798
528,00;0,1786
527,00;0,1776
526,00;0,1766
525,00;0,1756
524,00;0,1742
523,00;0,1724
522,00;0,1702
521,00;0,1681
520,00;0,1661
519,00;0,1639
518,00;0,1616
517,00;0,1593
516,00;0,1572
515,00;0,1552
514,00;0,1531
513,00;0,1512
512,00;0,1493
511,00;0,1473
510,00;0,1450
509,00;0,1428
508,00;0,1407
507,00;0,1387
506,00;0,1367
505,00;0,1347
504,00;0,1328
503,00;0,1309
502,00;0,1291
501,00;0,1280
500,00;0,1276
499,00;0,1275
498,00;0,1274
497,00;0,1274
496,00;0,1277
495,00;0,1281
494,00;0,1286
493,00;0,1293
492,00;0,1304
491,00;0,1315
490,00;0,1326
489,00;0,1340
488,00;0,1356
487,00;0,1373
486,00;0,1388
485,00;0,1404
484,00;0,1422
483,00;0,1440
482,00;0,1457
481,00;0,1474
480,00;0,1492
479,00;0,1506
478,00;0,1513
477,00;0,1513
476,00;0,1509
475,00;0,1503
474,00;0,1495
473,00;0,1487
472,00;0,1482
471,00;0,1481
470,00;0,1486
469,00;0,1495
468,00;0,1507
467,00;0,1515
466,00;0,1517
465,00;0,1518
464,00;0,1520
463,00;0,1523
462,00;0,1525
461,00;0,1528
460,00;0,1532
459,00;0,1533
458,00;0,1530
457,00;0,1527
456,00;0,1534
455,00;0,1549
454,00;0,1567
453,00;0,1588
452,00;0,1608
451,00;0,1625
450,00;0,1640
449,00;0,1658
448,00;0,1682
447,00;0,1705
446,00;0,1728
445,00;0,1755
444,00;0,1789
443,00;0,1824
442,00;0,1851
441,00;0,1869
440,00;0,1881
439,00;0,1889
438,00;0,1896
437,00;0,1903
436,00;0,1906
435,00;0,1899
434,00;0,1884
433,00;0,1871
432,00;0,1866
431,00;0,1865
430,00;0,1864
429,00;0,1869
428,00;0,1878
427,00;0,1886
426,00;0,1888
425,00;0,1893
424,00;0,1904
423,00;0,1918
422,00;0,1928
421,00;0,1937
420,00;0,1945
419,00;0,1948
418,00;0,1951
417,00;0,1963
416,00;0,1972
415,00;0,1959
414,00;0,1928
413,00;0,1899
412,00;0,1884
411,00;0,1876
410,00;0,1877
409,00;0,1901
408,00;0,1942
407,00;0,1967
406,00;0,1958
405,00;0,1938
404,00;0,1931
403,00;0,1932
402,00;0,1930
401,00;0,1942
400,00;0,1983
