Создан как новый массив данных;Образец 006 полученный BalashovM Дата пятница, апреля 21 2023
cm-1;A
4000,00;0,0549
3999,00;0,0549
3998,00;0,0549
3997,00;0,0549
3996,00;0,0549
3995,00;0,0549
3994,00;0,0549
3993,00;0,0549
3992,00;0,0549
3991,00;0,0549
3990,00;0,0549
3989,00;0,0549
3988,00;0,0549
3987,00;0,0549
3986,00;0,0549
3985,00;0,0549
3984,00;0,0549
3983,00;0,0549
3982,00;0,0549
3981,00;0,0549
3980,00;0,0549
3979,00;0,0548
3978,00;0,0548
3977,00;0,0549
3976,00;0,0549
3975,00;0,0549
3974,00;0,0549
3973,00;0,0550
3972,00;0,0550
3971,00;0,0550
3970,00;0,0549
3969,00;0,0549
3968,00;0,0549
3967,00;0,0549
3966,00;0,0549
3965,00;0,0549
3964,00;0,0549
3963,00;0,0549
3962,00;0,0549
3961,00;0,0549
3960,00;0,0548
3959,00;0,0548
3958,00;0,0549
3957,00;0,0549
3956,00;0,0549
3955,00;0,0549
3954,00;0,0549
3953,00;0,0549
3952,00;0,0549
3951,00;0,0550
3950,00;0,0550
3949,00;0,0550
3948,00;0,0550
3947,00;0,0550
3946,00;0,0550
3945,00;0,0549
3944,00;0,0549
3943,00;0,0549
3942,00;0,0549
3941,00;0,0549
3940,00;0,0549
3939,00;0,0549
3938,00;0,0549
3937,00;0,0549
3936,00;0,0549
3935,00;0,0549
3934,00;0,0550
3933,00;0,0550
3932,00;0,0550
3931,00;0,0550
3930,00;0,0550
3929,00;0,0550
3928,00;0,0549
3927,00;0,0549
3926,00;0,0549
3925,00;0,0548
3924,00;0,0548
3923,00;0,0548
3922,00;0,0549
3921,00;0,0549
3920,00;0,0549
3919,00;0,0549
3918,00;0,0549
3917,00;0,0549
3916,00;0,0549
3915,00;0,0549
3914,00;0,0549
3913,00;0,0549
3912,00;0,0548
3911,00;0,0548
3910,00;0,0548
3909,00;0,0548
3908,00;0,0548
3907,00;0,0549
3906,00;0,0549
3905,00;0,0549
3904,00;0,0549
3903,00;0,0550
3902,00;0,0551
3901,00;0,0551
3900,00;0,0552
3899,00;0,0551
3898,00;0,0550
3897,00;0,0550
3896,00;0,0549
3895,00;0,0549
3894,00;0,0549
3893,00;0,0549
3892,00;0,0548
3891,00;0,0548
3890,00;0,0548
3889,00;0,0549
3888,00;0,0550
3887,00;0,0550
3886,00;0,0551
3885,00;0,0550
3884,00;0,0550
3883,00;0,0551
3882,00;0,0551
3881,00;0,0550
3880,00;0,0549
3879,00;0,0548
3878,00;0,0548
3877,00;0,0549
3876,00;0,0549
3875,00;0,0549
3874,00;0,0549
3873,00;0,0549
3872,00;0,0549
3871,00;0,0549
3870,00;0,0549
3869,00;0,0548
3868,00;0,0549
3867,00;0,0550
3866,00;0,0551
3865,00;0,0551
3864,00;0,0551
3863,00;0,0550
3862,00;0,0550
3861,00;0,0550
3860,00;0,0549
3859,00;0,0549
3858,00;0,0549
3857,00;0,0549
3856,00;0,0550
3855,00;0,0550
3854,00;0,0550
3853,00;0,0550
3852,00;0,0550
3851,00;0,0550
3850,00;0,0550
3849,00;0,0550
3848,00;0,0549
3847,00;0,0548
3846,00;0,0548
3845,00;0,0547
3844,00;0,0547
3843,00;0,0547
3842,00;0,0547
3841,00;0,0548
3840,00;0,0549
3839,00;0,0549
3838,00;0,0549
3837,00;0,0549
3836,00;0,0549
3835,00;0,0548
3834,00;0,0548
3833,00;0,0548
3832,00;0,0547
3831,00;0,0547
3830,00;0,0547
3829,00;0,0547
3828,00;0,0547
3827,00;0,0547
3826,00;0,0547
3825,00;0,0547
3824,00;0,0547
3823,00;0,0547
3822,00;0,0547
3821,00;0,0547
3820,00;0,0546
3819,00;0,0547
3818,00;0,0547
3817,00;0,0548
3816,00;0,0548
3815,00;0,0547
3814,00;0,0547
3813,00;0,0547
3812,00;0,0547
3811,00;0,0546
3810,00;0,0546
3809,00;0,0546
3808,00;0,0546
3807,00;0,0546
3806,00;0,0546
3805,00;0,0547
3804,00;0,0547
3803,00;0,0548
3802,00;0,0547
3801,00;0,0547
3800,00;0,0547
3799,00;0,0547
3798,00;0,0547
3797,00;0,0547
3796,00;0,0546
3795,00;0,0546
3794,00;0,0546
3793,00;0,0546
3792,00;0,0545
3791,00;0,0545
3790,00;0,0545
3789,00;0,0545
3788,00;0,0545
3787,00;0,0544
3786,00;0,0544
3785,00;0,0544
3784,00;0,0544
3783,00;0,0544
3782,00;0,0544
3781,00;0,0545
3780,00;0,0545
3779,00;0,0546
3778,00;0,0546
3777,00;0,0546
3776,00;0,0546
3775,00;0,0545
3774,00;0,0544
3773,00;0,0544
3772,00;0,0544
3771,00;0,0544
3770,00;0,0544
3769,00;0,0544
3768,00;0,0544
3767,00;0,0545
3766,00;0,0545
3765,00;0,0545
3764,00;0,0545
3763,00;0,0545
3762,00;0,0545
3761,00;0,0545
3760,00;0,0545
3759,00;0,0544
3758,00;0,0544
3757,00;0,0543
3756,00;0,0543
3755,00;0,0543
3754,00;0,0542
3753,00;0,0542
3752,00;0,0543
3751,00;0,0543
3750,00;0,0544
3749,00;0,0545
3748,00;0,0545
3747,00;0,0546
3746,00;0,0546
3745,00;0,0546
3744,00;0,0546
3743,00;0,0546
3742,00;0,0546
3741,00;0,0545
3740,00;0,0545
3739,00;0,0544
3738,00;0,0544
3737,00;0,0544
3736,00;0,0544
3735,00;0,0544
3734,00;0,0544
3733,00;0,0545
3732,00;0,0544
3731,00;0,0543
3730,00;0,0542
3729,00;0,0542
3728,00;0,0541
3727,00;0,0541
3726,00;0,0541
3725,00;0,0541
3724,00;0,0541
3723,00;0,0541
3722,00;0,0541
3721,00;0,0541
3720,00;0,0541
3719,00;0,0540
3718,00;0,0540
3717,00;0,0540
3716,00;0,0540
3715,00;0,0540
3714,00;0,0540
3713,00;0,0540
3712,00;0,0540
3711,00;0,0540
3710,00;0,0541
3709,00;0,0542
3708,00;0,0542
3707,00;0,0541
3706,00;0,0541
3705,00;0,0540
3704,00;0,0540
3703,00;0,0540
3702,00;0,0540
3701,00;0,0540
3700,00;0,0540
3699,00;0,0540
3698,00;0,0540
3697,00;0,0540
3696,00;0,0539
3695,00;0,0539
3694,00;0,0539
3693,00;0,0539
3692,00;0,0538
3691,00;0,0538
3690,00;0,0538
3689,00;0,0539
3688,00;0,0540
3687,00;0,0540
3686,00;0,0540
3685,00;0,0540
3684,00;0,0540
3683,00;0,0539
3682,00;0,0538
3681,00;0,0538
3680,00;0,0537
3679,00;0,0537
3678,00;0,0537
3677,00;0,0538
3676,00;0,0539
3675,00;0,0539
3674,00;0,0540
3673,00;0,0542
3672,00;0,0542
3671,00;0,0542
3670,00;0,0541
3669,00;0,0541
3668,00;0,0541
3667,00;0,0540
3666,00;0,0540
3665,00;0,0539
3664,00;0,0539
3663,00;0,0538
3662,00;0,0538
3661,00;0,0538
3660,00;0,0538
3659,00;0,0539
3658,00;0,0539
3657,00;0,0539
3656,00;0,0539
3655,00;0,0538
3654,00;0,0538
3653,00;0,0539
3652,00;0,0539
3651,00;0,0539
3650,00;0,0539
3649,00;0,0540
3648,00;0,0540
3647,00;0,0541
3646,00;0,0541
3645,00;0,0541
3644,00;0,0541
3643,00;0,0540
3642,00;0,0540
3641,00;0,0539
3640,00;0,0538
3639,00;0,0538
3638,00;0,0537
3637,00;0,0537
3636,00;0,0537
3635,00;0,0537
3634,00;0,0537
3633,00;0,0537
3632,00;0,0537
3631,00;0,0538
3630,00;0,0539
3629,00;0,0539
3628,00;0,0539
3627,00;0,0539
3626,00;0,0540
3625,00;0,0540
3624,00;0,0539
3623,00;0,0539
3622,00;0,0539
3621,00;0,0539
3620,00;0,0539
3619,00;0,0538
3618,00;0,0539
3617,00;0,0539
3616,00;0,0539
3615,00;0,0540
3614,00;0,0540
3613,00;0,0540
3612,00;0,0540
3611,00;0,0540
3610,00;0,0540
3609,00;0,0540
3608,00;0,0540
3607,00;0,0540
3606,00;0,0539
3605,00;0,0539
3604,00;0,0539
3603,00;0,0539
3602,00;0,0539
3601,00;0,0538
3600,00;0,0538
3599,00;0,0538
3598,00;0,0538
3597,00;0,0538
3596,00;0,0539
3595,00;0,0539
3594,00;0,0539
3593,00;0,0538
3592,00;0,0538
3591,00;0,0538
3590,00;0,0539
3589,00;0,0540
3588,00;0,0540
3587,00;0,0540
3586,00;0,0540
3585,00;0,0541
3584,00;0,0541
3583,00;0,0541
3582,00;0,0540
3581,00;0,0540
3580,00;0,0539
3579,00;0,0539
3578,00;0,0539
3577,00;0,0539
3576,00;0,0539
3575,00;0,0539
3574,00;0,0539
3573,00;0,0540
3572,00;0,0540
3571,00;0,0540
3570,00;0,0540
3569,00;0,0540
3568,00;0,0541
3567,00;0,0541
3566,00;0,0542
3565,00;0,0542
3564,00;0,0542
3563,00;0,0542
3562,00;0,0541
3561,00;0,0541
3560,00;0,0540
3559,00;0,0539
3558,00;0,0539
3557,00;0,0539
3556,00;0,0539
3555,00;0,0540
3554,00;0,0540
3553,00;0,0541
3552,00;0,0541
3551,00;0,0541
3550,00;0,0541
3549,00;0,0541
3548,00;0,0541
3547,00;0,0541
3546,00;0,0541
3545,00;0,0541
3544,00;0,0541
3543,00;0,0541
3542,00;0,0541
3541,00;0,0541
3540,00;0,0541
3539,00;0,0541
3538,00;0,0541
3537,00;0,0541
3536,00;0,0541
3535,00;0,0541
3534,00;0,0541
3533,00;0,0541
3532,00;0,0541
3531,00;0,0541
3530,00;0,0541
3529,00;0,0541
3528,00;0,0541
3527,00;0,0541
3526,00;0,0541
3525,00;0,0541
3524,00;0,0542
3523,00;0,0542
3522,00;0,0542
3521,00;0,0542
3520,00;0,0542
3519,00;0,0542
3518,00;0,0542
3517,00;0,0542
3516,00;0,0542
3515,00;0,0541
3514,00;0,0541
3513,00;0,0541
3512,00;0,0541
3511,00;0,0541
3510,00;0,0541
3509,00;0,0541
3508,00;0,0541
3507,00;0,0541
3506,00;0,0541
3505,00;0,0542
3504,00;0,0542
3503,00;0,0542
3502,00;0,0542
3501,00;0,0542
3500,00;0,0542
3499,00;0,0542
3498,00;0,0542
3497,00;0,0543
3496,00;0,0543
3495,00;0,0543
3494,00;0,0543
3493,00;0,0542
3492,00;0,0542
3491,00;0,0542
3490,00;0,0542
3489,00;0,0541
3488,00;0,0541
3487,00;0,0542
3486,00;0,0542
3485,00;0,0542
3484,00;0,0542
3483,00;0,0542
3482,00;0,0542
3481,00;0,0542
3480,00;0,0543
3479,00;0,0543
3478,00;0,0543
3477,00;0,0542
3476,00;0,0542
3475,00;0,0542
3474,00;0,0542
3473,00;0,0542
3472,00;0,0542
3471,00;0,0542
3470,00;0,0542
3469,00;0,0542
3468,00;0,0542
3467,00;0,0543
3466,00;0,0543
3465,00;0,0543
3464,00;0,0543
3463,00;0,0543
3462,00;0,0543
3461,00;0,0543
3460,00;0,0543
3459,00;0,0543
3458,00;0,0543
3457,00;0,0543
3456,00;0,0543
3455,00;0,0543
3454,00;0,0543
3453,00;0,0543
3452,00;0,0543
3451,00;0,0543
3450,00;0,0543
3449,00;0,0543
3448,00;0,0543
3447,00;0,0542
3446,00;0,0542
3445,00;0,0542
3444,00;0,0543
3443,00;0,0543
3442,00;0,0543
3441,00;0,0543
3440,00;0,0543
3439,00;0,0543
3438,00;0,0542
3437,00;0,0542
3436,00;0,0542
3435,00;0,0542
3434,00;0,0542
3433,00;0,0543
3432,00;0,0543
3431,00;0,0543
3430,00;0,0543
3429,00;0,0543
3428,00;0,0543
3427,00;0,0543
3426,00;0,0543
3425,00;0,0543
3424,00;0,0543
3423,00;0,0543
3422,00;0,0543
3421,00;0,0543
3420,00;0,0543
3419,00;0,0543
3418,00;0,0543
3417,00;0,0543
3416,00;0,0543
3415,00;0,0543
3414,00;0,0543
3413,00;0,0543
3412,00;0,0543
3411,00;0,0543
3410,00;0,0543
3409,00;0,0543
3408,00;0,0543
3407,00;0,0543
3406,00;0,0543
3405,00;0,0543
3404,00;0,0543
3403,00;0,0543
3402,00;0,0543
3401,00;0,0543
3400,00;0,0543
3399,00;0,0543
3398,00;0,0543
3397,00;0,0543
3396,00;0,0543
3395,00;0,0543
3394,00;0,0543
3393,00;0,0543
3392,00;0,0543
3391,00;0,0543
3390,00;0,0543
3389,00;0,0543
3388,00;0,0543
3387,00;0,0543
3386,00;0,0543
3385,00;0,0543
3384,00;0,0543
3383,00;0,0543
3382,00;0,0543
3381,00;0,0543
3380,00;0,0543
3379,00;0,0542
3378,00;0,0542
3377,00;0,0542
3376,00;0,0542
3375,00;0,0542
3374,00;0,0542
3373,00;0,0542
3372,00;0,0542
3371,00;0,0542
3370,00;0,0542
3369,00;0,0543
3368,00;0,0543
3367,00;0,0543
3366,00;0,0543
3365,00;0,0543
3364,00;0,0543
3363,00;0,0543
3362,00;0,0543
3361,00;0,0543
3360,00;0,0543
3359,00;0,0543
3358,00;0,0543
3357,00;0,0543
3356,00;0,0542
3355,00;0,0542
3354,00;0,0543
3353,00;0,0543
3352,00;0,0543
3351,00;0,0543
3350,00;0,0542
3349,00;0,0542
3348,00;0,0542
3347,00;0,0543
3346,00;0,0543
3345,00;0,0543
3344,00;0,0542
3343,00;0,0542
3342,00;0,0542
3341,00;0,0542
3340,00;0,0543
3339,00;0,0543
3338,00;0,0543
3337,00;0,0543
3336,00;0,0543
3335,00;0,0542
3334,00;0,0542
3333,00;0,0542
3332,00;0,0542
3331,00;0,0541
3330,00;0,0541
3329,00;0,0542
3328,00;0,0542
3327,00;0,0542
3326,00;0,0542
3325,00;0,0542
3324,00;0,0542
3323,00;0,0542
3322,00;0,0542
3321,00;0,0541
3320,00;0,0541
3319,00;0,0540
3318,00;0,0540
3317,00;0,0540
3316,00;0,0540
3315,00;0,0541
3314,00;0,0541
3313,00;0,0541
3312,00;0,0541
3311,00;0,0541
3310,00;0,0542
3309,00;0,0542
3308,00;0,0542
3307,00;0,0542
3306,00;0,0542
3305,00;0,0542
3304,00;0,0542
3303,00;0,0542
3302,00;0,0542
3301,00;0,0542
3300,00;0,0542
3299,00;0,0542
3298,00;0,0541
3297,00;0,0541
3296,00;0,0541
3295,00;0,0541
3294,00;0,0541
3293,00;0,0541
3292,00;0,0541
3291,00;0,0541
3290,00;0,0541
3289,00;0,0541
3288,00;0,0541
3287,00;0,0541
3286,00;0,0541
3285,00;0,0540
3284,00;0,0541
3283,00;0,0541
3282,00;0,0541
3281,00;0,0541
3280,00;0,0540
3279,00;0,0540
3278,00;0,0540
3277,00;0,0540
3276,00;0,0540
3275,00;0,0541
3274,00;0,0541
3273,00;0,0541
3272,00;0,0541
3271,00;0,0541
3270,00;0,0541
3269,00;0,0540
3268,00;0,0540
3267,00;0,0540
3266,00;0,0540
3265,00;0,0540
3264,00;0,0539
3263,00;0,0539
3262,00;0,0539
3261,00;0,0539
3260,00;0,0539
3259,00;0,0539
3258,00;0,0539
3257,00;0,0539
3256,00;0,0540
3255,00;0,0540
3254,00;0,0539
3253,00;0,0539
3252,00;0,0539
3251,00;0,0539
3250,00;0,0539
3249,00;0,0539
3248,00;0,0539
3247,00;0,0538
3246,00;0,0538
3245,00;0,0539
3244,00;0,0539
3243,00;0,0539
3242,00;0,0539
3241,00;0,0539
3240,00;0,0539
3239,00;0,0539
3238,00;0,0539
3237,00;0,0538
3236,00;0,0538
3235,00;0,0538
3234,00;0,0537
3233,00;0,0537
3232,00;0,0537
3231,00;0,0537
3230,00;0,0537
3229,00;0,0537
3228,00;0,0537
3227,00;0,0538
3226,00;0,0538
3225,00;0,0538
3224,00;0,0538
3223,00;0,0538
3222,00;0,0538
3221,00;0,0538
3220,00;0,0538
3219,00;0,0538
3218,00;0,0538
3217,00;0,0538
3216,00;0,0537
3215,00;0,0537
3214,00;0,0537
3213,00;0,0537
3212,00;0,0536
3211,00;0,0536
3210,00;0,0536
3209,00;0,0536
3208,00;0,0536
3207,00;0,0537
3206,00;0,0537
3205,00;0,0537
3204,00;0,0537
3203,00;0,0536
3202,00;0,0536
3201,00;0,0537
3200,00;0,0537
3199,00;0,0537
3198,00;0,0537
3197,00;0,0537
3196,00;0,0536
3195,00;0,0536
3194,00;0,0536
3193,00;0,0536
3192,00;0,0536
3191,00;0,0536
3190,00;0,0536
3189,00;0,0536
3188,00;0,0536
3187,00;0,0536
3186,00;0,0535
3185,00;0,0535
3184,00;0,0535
3183,00;0,0535
3182,00;0,0535
3181,00;0,0536
3180,00;0,0536
3179,00;0,0536
3178,00;0,0536
3177,00;0,0536
3176,00;0,0536
3175,00;0,0535
3174,00;0,0535
3173,00;0,0535
3172,00;0,0535
3171,00;0,0535
3170,00;0,0535
3169,00;0,0535
3168,00;0,0535
3167,00;0,0535
3166,00;0,0535
3165,00;0,0535
3164,00;0,0535
3163,00;0,0535
3162,00;0,0535
3161,00;0,0534
3160,00;0,0534
3159,00;0,0534
3158,00;0,0534
3157,00;0,0534
3156,00;0,0534
3155,00;0,0534
3154,00;0,0534
3153,00;0,0534
3152,00;0,0534
3151,00;0,0534
3150,00;0,0534
3149,00;0,0534
3148,00;0,0534
3147,00;0,0534
3146,00;0,0534
3145,00;0,0534
3144,00;0,0534
3143,00;0,0534
3142,00;0,0534
3141,00;0,0534
3140,00;0,0534
3139,00;0,0534
3138,00;0,0534
3137,00;0,0533
3136,00;0,0533
3135,00;0,0533
3134,00;0,0533
3133,00;0,0533
3132,00;0,0533
3131,00;0,0533
3130,00;0,0533
3129,00;0,0533
3128,00;0,0533
3127,00;0,0533
3126,00;0,0533
3125,00;0,0533
3124,00;0,0532
3123,00;0,0532
3122,00;0,0532
3121,00;0,0532
3120,00;0,0532
3119,00;0,0533
3118,00;0,0533
3117,00;0,0533
3116,00;0,0533
3115,00;0,0533
3114,00;0,0533
3113,00;0,0533
3112,00;0,0533
3111,00;0,0532
3110,00;0,0532
3109,00;0,0532
3108,00;0,0532
3107,00;0,0532
3106,00;0,0532
3105,00;0,0532
3104,00;0,0532
3103,00;0,0532
3102,00;0,0532
3101,00;0,0532
3100,00;0,0532
3099,00;0,0532
3098,00;0,0531
3097,00;0,0531
3096,00;0,0532
3095,00;0,0532
3094,00;0,0532
3093,00;0,0532
3092,00;0,0532
3091,00;0,0532
3090,00;0,0532
3089,00;0,0532
3088,00;0,0532
3087,00;0,0532
3086,00;0,0532
3085,00;0,0532
3084,00;0,0531
3083,00;0,0531
3082,00;0,0531
3081,00;0,0531
3080,00;0,0531
3079,00;0,0531
3078,00;0,0532
3077,00;0,0532
3076,00;0,0532
3075,00;0,0532
3074,00;0,0532
3073,00;0,0532
3072,00;0,0532
3071,00;0,0532
3070,00;0,0532
3069,00;0,0531
3068,00;0,0531
3067,00;0,0531
3066,00;0,0531
3065,00;0,0531
3064,00;0,0531
3063,00;0,0531
3062,00;0,0531
3061,00;0,0531
3060,00;0,0531
3059,00;0,0531
3058,00;0,0531
3057,00;0,0531
3056,00;0,0531
3055,00;0,0531
3054,00;0,0531
3053,00;0,0530
3052,00;0,0530
3051,00;0,0530
3050,00;0,0530
3049,00;0,0530
3048,00;0,0530
3047,00;0,0530
3046,00;0,0530
3045,00;0,0529
3044,00;0,0529
3043,00;0,0529
3042,00;0,0530
3041,00;0,0530
3040,00;0,0530
3039,00;0,0530
3038,00;0,0530
3037,00;0,0530
3036,00;0,0530
3035,00;0,0530
3034,00;0,0530
3033,00;0,0531
3032,00;0,0531
3031,00;0,0531
3030,00;0,0531
3029,00;0,0530
3028,00;0,0530
3027,00;0,0529
3026,00;0,0529
3025,00;0,0529
3024,00;0,0529
3023,00;0,0529
3022,00;0,0529
3021,00;0,0529
3020,00;0,0529
3019,00;0,0529
3018,00;0,0529
3017,00;0,0529
3016,00;0,0529
3015,00;0,0529
3014,00;0,0529
3013,00;0,0529
3012,00;0,0529
3011,00;0,0529
3010,00;0,0529
3009,00;0,0529
3008,00;0,0529
3007,00;0,0529
3006,00;0,0529
3005,00;0,0529
3004,00;0,0529
3003,00;0,0529
3002,00;0,0528
3001,00;0,0528
3000,00;0,0528
2999,00;0,0528
2998,00;0,0528
2997,00;0,0528
2996,00;0,0528
2995,00;0,0528
2994,00;0,0528
2993,00;0,0528
2992,00;0,0528
2991,00;0,0528
2990,00;0,0528
2989,00;0,0528
2988,00;0,0528
2987,00;0,0528
2986,00;0,0528
2985,00;0,0528
2984,00;0,0528
2983,00;0,0527
2982,00;0,0527
2981,00;0,0527
2980,00;0,0527
2979,00;0,0527
2978,00;0,0527
2977,00;0,0527
2976,00;0,0527
2975,00;0,0527
2974,00;0,0527
2973,00;0,0527
2972,00;0,0527
2971,00;0,0527
2970,00;0,0527
2969,00;0,0526
2968,00;0,0526
2967,00;0,0526
2966,00;0,0526
2965,00;0,0526
2964,00;0,0525
2963,00;0,0525
2962,00;0,0525
2961,00;0,0525
2960,00;0,0526
2959,00;0,0526
2958,00;0,0526
2957,00;0,0526
2956,00;0,0526
2955,00;0,0526
2954,00;0,0526
2953,00;0,0526
2952,00;0,0526
2951,00;0,0526
2950,00;0,0526
2949,00;0,0525
2948,00;0,0525
2947,00;0,0525
2946,00;0,0525
2945,00;0,0525
2944,00;0,0525
2943,00;0,0525
2942,00;0,0525
2941,00;0,0525
2940,00;0,0525
2939,00;0,0524
2938,00;0,0524
2937,00;0,0524
2936,00;0,0524
2935,00;0,0524
2934,00;0,0524
2933,00;0,0523
2932,00;0,0523
2931,00;0,0523
2930,00;0,0523
2929,00;0,0523
2928,00;0,0523
2927,00;0,0523
2926,00;0,0523
2925,00;0,0523
2924,00;0,0523
2923,00;0,0523
2922,00;0,0524
2921,00;0,0524
2920,00;0,0524
2919,00;0,0524
2918,00;0,0525
2917,00;0,0525
2916,00;0,0524
2915,00;0,0524
2914,00;0,0524
2913,00;0,0525
2912,00;0,0525
2911,00;0,0525
2910,00;0,0525
2909,00;0,0525
2908,00;0,0525
2907,00;0,0525
2906,00;0,0525
2905,00;0,0525
2904,00;0,0525
2903,00;0,0525
2902,00;0,0525
2901,00;0,0525
2900,00;0,0525
2899,00;0,0525
2898,00;0,0525
2897,00;0,0525
2896,00;0,0525
2895,00;0,0525
2894,00;0,0525
2893,00;0,0525
2892,00;0,0525
2891,00;0,0526
2890,00;0,0526
2889,00;0,0526
2888,00;0,0526
2887,00;0,0525
2886,00;0,0525
2885,00;0,0525
2884,00;0,0525
2883,00;0,0525
2882,00;0,0525
2881,00;0,0525
2880,00;0,0525
2879,00;0,0525
2878,00;0,0524
2877,00;0,0524
2876,00;0,0524
2875,00;0,0524
2874,00;0,0523
2873,00;0,0523
2872,00;0,0523
2871,00;0,0523
2870,00;0,0523
2869,00;0,0523
2868,00;0,0523
2867,00;0,0523
2866,00;0,0523
2865,00;0,0524
2864,00;0,0523
2863,00;0,0523
2862,00;0,0523
2861,00;0,0523
2860,00;0,0522
2859,00;0,0522
2858,00;0,0522
2857,00;0,0522
2856,00;0,0522
2855,00;0,0522
2854,00;0,0523
2853,00;0,0523
2852,00;0,0523
2851,00;0,0523
2850,00;0,0523
2849,00;0,0523
2848,00;0,0523
2847,00;0,0523
2846,00;0,0523
2845,00;0,0523
2844,00;0,0523
2843,00;0,0523
2842,00;0,0523
2841,00;0,0523
2840,00;0,0523
2839,00;0,0523
2838,00;0,0523
2837,00;0,0523
2836,00;0,0523
2835,00;0,0523
2834,00;0,0523
2833,00;0,0523
2832,00;0,0523
2831,00;0,0522
2830,00;0,0522
2829,00;0,0523
2828,00;0,0523
2827,00;0,0523
2826,00;0,0522
2825,00;0,0522
2824,00;0,0522
2823,00;0,0522
2822,00;0,0522
2821,00;0,0522
2820,00;0,0522
2819,00;0,0522
2818,00;0,0522
2817,00;0,0522
2816,00;0,0522
2815,00;0,0522
2814,00;0,0522
2813,00;0,0522
2812,00;0,0521
2811,00;0,0521
2810,00;0,0521
2809,00;0,0521
2808,00;0,0521
2807,00;0,0520
2806,00;0,0520
2805,00;0,0520
2804,00;0,0520
2803,00;0,0521
2802,00;0,0521
2801,00;0,0520
2800,00;0,0520
2799,00;0,0519
2798,00;0,0519
2797,00;0,0519
2796,00;0,0520
2795,00;0,0520
2794,00;0,0519
2793,00;0,0519
2792,00;0,0519
2791,00;0,0519
2790,00;0,0519
2789,00;0,0519
2788,00;0,0519
2787,00;0,0519
2786,00;0,0519
2785,00;0,0519
2784,00;0,0519
2783,00;0,0519
2782,00;0,0518
2781,00;0,0518
2780,00;0,0518
2779,00;0,0518
2778,00;0,0518
2777,00;0,0518
2776,00;0,0518
2775,00;0,0518
2774,00;0,0518
2773,00;0,0518
2772,00;0,0518
2771,00;0,0518
2770,00;0,0518
2769,00;0,0518
2768,00;0,0518
2767,00;0,0518
2766,00;0,0518
2765,00;0,0517
2764,00;0,0517
2763,00;0,0517
2762,00;0,0517
2761,00;0,0517
2760,00;0,0517
2759,00;0,0517
2758,00;0,0517
2757,00;0,0517
2756,00;0,0517
2755,00;0,0517
2754,00;0,0517
2753,00;0,0516
2752,00;0,0516
2751,00;0,0516
2750,00;0,0516
2749,00;0,0516
2748,00;0,0516
2747,00;0,0516
2746,00;0,0516
2745,00;0,0516
2744,00;0,0516
2743,00;0,0516
2742,00;0,0516
2741,00;0,0515
2740,00;0,0515
2739,00;0,0515
2738,00;0,0514
2737,00;0,0514
2736,00;0,0515
2735,00;0,0515
2734,00;0,0515
2733,00;0,0515
2732,00;0,0515
2731,00;0,0515
2730,00;0,0515
2729,00;0,0515
2728,00;0,0515
2727,00;0,0515
2726,00;0,0515
2725,00;0,0514
2724,00;0,0514
2723,00;0,0514
2722,00;0,0513
2721,00;0,0513
2720,00;0,0513
2719,00;0,0514
2718,00;0,0514
2717,00;0,0514
2716,00;0,0514
2715,00;0,0514
2714,00;0,0513
2713,00;0,0513
2712,00;0,0513
2711,00;0,0513
2710,00;0,0513
2709,00;0,0513
2708,00;0,0513
2707,00;0,0513
2706,00;0,0513
2705,00;0,0513
2704,00;0,0512
2703,00;0,0512
2702,00;0,0512
2701,00;0,0512
2700,00;0,0512
2699,00;0,0512
2698,00;0,0512
2697,00;0,0512
2696,00;0,0511
2695,00;0,0511
2694,00;0,0511
2693,00;0,0511
2692,00;0,0511
2691,00;0,0512
2690,00;0,0512
2689,00;0,0512
2688,00;0,0512
2687,00;0,0512
2686,00;0,0511
2685,00;0,0511
2684,00;0,0511
2683,00;0,0511
2682,00;0,0511
2681,00;0,0511
2680,00;0,0511
2679,00;0,0510
2678,00;0,0510
2677,00;0,0510
2676,00;0,0510
2675,00;0,0510
2674,00;0,0510
2673,00;0,0510
2672,00;0,0509
2671,00;0,0510
2670,00;0,0510
2669,00;0,0510
2668,00;0,0510
2667,00;0,0510
2666,00;0,0510
2665,00;0,0510
2664,00;0,0510
2663,00;0,0511
2662,00;0,0511
2661,00;0,0511
2660,00;0,0512
2659,00;0,0512
2658,00;0,0512
2657,00;0,0512
2656,00;0,0512
2655,00;0,0512
2654,00;0,0511
2653,00;0,0511
2652,00;0,0510
2651,00;0,0510
2650,00;0,0510
2649,00;0,0509
2648,00;0,0509
2647,00;0,0509
2646,00;0,0509
2645,00;0,0509
2644,00;0,0509
2643,00;0,0508
2642,00;0,0508
2641,00;0,0508
2640,00;0,0507
2639,00;0,0507
2638,00;0,0506
2637,00;0,0506
2636,00;0,0506
2635,00;0,0506
2634,00;0,0506
2633,00;0,0506
2632,00;0,0505
2631,00;0,0505
2630,00;0,0505
2629,00;0,0505
2628,00;0,0505
2627,00;0,0505
2626,00;0,0504
2625,00;0,0504
2624,00;0,0503
2623,00;0,0503
2622,00;0,0503
2621,00;0,0502
2620,00;0,0502
2619,00;0,0501
2618,00;0,0501
2617,00;0,0501
2616,00;0,0501
2615,00;0,0501
2614,00;0,0501
2613,00;0,0501
2612,00;0,0500
2611,00;0,0500
2610,00;0,0500
2609,00;0,0499
2608,00;0,0499
2607,00;0,0499
2606,00;0,0499
2605,00;0,0499
2604,00;0,0499
2603,00;0,0499
2602,00;0,0498
2601,00;0,0498
2600,00;0,0498
2599,00;0,0497
2598,00;0,0497
2597,00;0,0497
2596,00;0,0496
2595,00;0,0496
2594,00;0,0496
2593,00;0,0496
2592,00;0,0495
2591,00;0,0495
2590,00;0,0495
2589,00;0,0495
2588,00;0,0495
2587,00;0,0495
2586,00;0,0494
2585,00;0,0494
2584,00;0,0494
2583,00;0,0493
2582,00;0,0493
2581,00;0,0494
2580,00;0,0494
2579,00;0,0494
2578,00;0,0494
2577,00;0,0494
2576,00;0,0494
2575,00;0,0494
2574,00;0,0494
2573,00;0,0493
2572,00;0,0493
2571,00;0,0492
2570,00;0,0492
2569,00;0,0492
2568,00;0,0491
2567,00;0,0491
2566,00;0,0491
2565,00;0,0491
2564,00;0,0491
2563,00;0,0491
2562,00;0,0491
2561,00;0,0491
2560,00;0,0491
2559,00;0,0490
2558,00;0,0490
2557,00;0,0490
2556,00;0,0489
2555,00;0,0489
2554,00;0,0490
2553,00;0,0490
2552,00;0,0491
2551,00;0,0491
2550,00;0,0491
2549,00;0,0491
2548,00;0,0491
2547,00;0,0490
2546,00;0,0489
2545,00;0,0489
2544,00;0,0488
2543,00;0,0488
2542,00;0,0488
2541,00;0,0488
2540,00;0,0489
2539,00;0,0489
2538,00;0,0489
2537,00;0,0489
2536,00;0,0489
2535,00;0,0488
2534,00;0,0487
2533,00;0,0487
2532,00;0,0487
2531,00;0,0488
2530,00;0,0488
2529,00;0,0488
2528,00;0,0487
2527,00;0,0487
2526,00;0,0487
2525,00;0,0487
2524,00;0,0487
2523,00;0,0488
2522,00;0,0488
2521,00;0,0487
2520,00;0,0486
2519,00;0,0486
2518,00;0,0485
2517,00;0,0485
2516,00;0,0485
2515,00;0,0485
2514,00;0,0485
2513,00;0,0485
2512,00;0,0486
2511,00;0,0486
2510,00;0,0485
2509,00;0,0485
2508,00;0,0484
2507,00;0,0484
2506,00;0,0484
2505,00;0,0484
2504,00;0,0484
2503,00;0,0484
2502,00;0,0484
2501,00;0,0484
2500,00;0,0484
2499,00;0,0484
2498,00;0,0485
2497,00;0,0485
2496,00;0,0485
2495,00;0,0485
2494,00;0,0484
2493,00;0,0484
2492,00;0,0483
2491,00;0,0483
2490,00;0,0483
2489,00;0,0483
2488,00;0,0482
2487,00;0,0482
2486,00;0,0483
2485,00;0,0483
2484,00;0,0482
2483,00;0,0482
2482,00;0,0482
2481,00;0,0482
2480,00;0,0483
2479,00;0,0483
2478,00;0,0483
2477,00;0,0483
2476,00;0,0483
2475,00;0,0482
2474,00;0,0482
2473,00;0,0482
2472,00;0,0481
2471,00;0,0481
2470,00;0,0480
2469,00;0,0480
2468,00;0,0479
2467,00;0,0479
2466,00;0,0480
2465,00;0,0480
2464,00;0,0480
2463,00;0,0480
2462,00;0,0481
2461,00;0,0481
2460,00;0,0481
2459,00;0,0481
2458,00;0,0481
2457,00;0,0481
2456,00;0,0481
2455,00;0,0480
2454,00;0,0481
2453,00;0,0481
2452,00;0,0481
2451,00;0,0481
2450,00;0,0480
2449,00;0,0480
2448,00;0,0480
2447,00;0,0480
2446,00;0,0480
2445,00;0,0480
2444,00;0,0480
2443,00;0,0479
2442,00;0,0479
2441,00;0,0478
2440,00;0,0478
2439,00;0,0478
2438,00;0,0478
2437,00;0,0478
2436,00;0,0479
2435,00;0,0479
2434,00;0,0478
2433,00;0,0478
2432,00;0,0477
2431,00;0,0477
2430,00;0,0477
2429,00;0,0476
2428,00;0,0476
2427,00;0,0475
2426,00;0,0475
2425,00;0,0475
2424,00;0,0476
2423,00;0,0475
2422,00;0,0475
2421,00;0,0475
2420,00;0,0475
2419,00;0,0475
2418,00;0,0475
2417,00;0,0475
2416,00;0,0475
2415,00;0,0475
2414,00;0,0475
2413,00;0,0475
2412,00;0,0475
2411,00;0,0475
2410,00;0,0474
2409,00;0,0474
2408,00;0,0473
2407,00;0,0473
2406,00;0,0472
2405,00;0,0471
2404,00;0,0471
2403,00;0,0471
2402,00;0,0471
2401,00;0,0471
2400,00;0,0471
2399,00;0,0471
2398,00;0,0471
2397,00;0,0472
2396,00;0,0472
2395,00;0,0472
2394,00;0,0472
2393,00;0,0472
2392,00;0,0472
2391,00;0,0472
2390,00;0,0472
2389,00;0,0472
2388,00;0,0472
2387,00;0,0471
2386,00;0,0471
2385,00;0,0470
2384,00;0,0469
2383,00;0,0468
2382,00;0,0467
2381,00;0,0467
2380,00;0,0466
2379,00;0,0466
2378,00;0,0466
2377,00;0,0466
2376,00;0,0466
2375,00;0,0466
2374,00;0,0467
2373,00;0,0467
2372,00;0,0467
2371,00;0,0467
2370,00;0,0467
2369,00;0,0466
2368,00;0,0465
2367,00;0,0464
2366,00;0,0464
2365,00;0,0465
2364,00;0,0465
2363,00;0,0466
2362,00;0,0466
2361,00;0,0466
2360,00;0,0466
2359,00;0,0466
2358,00;0,0467
2357,00;0,0467
2356,00;0,0468
2355,00;0,0468
2354,00;0,0469
2353,00;0,0470
2352,00;0,0470
2351,00;0,0470
2350,00;0,0469
2349,00;0,0468
2348,00;0,0468
2347,00;0,0468
2346,00;0,0468
2345,00;0,0469
2344,00;0,0469
2343,00;0,0468
2342,00;0,0468
2341,00;0,0468
2340,00;0,0468
2339,00;0,0469
2338,00;0,0470
2337,00;0,0470
2336,00;0,0470
2335,00;0,0469
2334,00;0,0469
2333,00;0,0469
2332,00;0,0469
2331,00;0,0469
2330,00;0,0469
2329,00;0,0470
2328,00;0,0470
2327,00;0,0472
2326,00;0,0475
2325,00;0,0477
2324,00;0,0479
2323,00;0,0479
2322,00;0,0478
2321,00;0,0476
2320,00;0,0474
2319,00;0,0473
2318,00;0,0472
2317,00;0,0472
2316,00;0,0471
2315,00;0,0471
2314,00;0,0470
2313,00;0,0470
2312,00;0,0469
2311,00;0,0468
2310,00;0,0467
2309,00;0,0466
2308,00;0,0465
2307,00;0,0465
2306,00;0,0465
2305,00;0,0465
2304,00;0,0465
2303,00;0,0465
2302,00;0,0465
2301,00;0,0465
2300,00;0,0465
2299,00;0,0465
2298,00;0,0465
2297,00;0,0465
2296,00;0,0466
2295,00;0,0466
2294,00;0,0467
2293,00;0,0467
2292,00;0,0467
2291,00;0,0467
2290,00;0,0468
2289,00;0,0469
2288,00;0,0470
2287,00;0,0470
2286,00;0,0470
2285,00;0,0469
2284,00;0,0468
2283,00;0,0468
2282,00;0,0467
2281,00;0,0467
2280,00;0,0467
2279,00;0,0467
2278,00;0,0467
2277,00;0,0467
2276,00;0,0467
2275,00;0,0466
2274,00;0,0466
2273,00;0,0466
2272,00;0,0465
2271,00;0,0465
2270,00;0,0464
2269,00;0,0464
2268,00;0,0464
2267,00;0,0463
2266,00;0,0463
2265,00;0,0462
2264,00;0,0462
2263,00;0,0461
2262,00;0,0460
2261,00;0,0459
2260,00;0,0459
2259,00;0,0459
2258,00;0,0459
2257,00;0,0459
2256,00;0,0459
2255,00;0,0458
2254,00;0,0456
2253,00;0,0455
2252,00;0,0454
2251,00;0,0454
2250,00;0,0454
2249,00;0,0454
2248,00;0,0454
2247,00;0,0454
2246,00;0,0454
2245,00;0,0453
2244,00;0,0453
2243,00;0,0452
2242,00;0,0452
2241,00;0,0453
2240,00;0,0455
2239,00;0,0457
2238,00;0,0458
2237,00;0,0458
2236,00;0,0458
2235,00;0,0458
2234,00;0,0458
2233,00;0,0458
2232,00;0,0457
2231,00;0,0457
2230,00;0,0456
2229,00;0,0457
2228,00;0,0458
2227,00;0,0459
2226,00;0,0460
2225,00;0,0459
2224,00;0,0458
2223,00;0,0456
2222,00;0,0455
2221,00;0,0454
2220,00;0,0454
2219,00;0,0455
2218,00;0,0455
2217,00;0,0454
2216,00;0,0454
2215,00;0,0453
2214,00;0,0454
2213,00;0,0454
2212,00;0,0453
2211,00;0,0451
2210,00;0,0449
2209,00;0,0448
2208,00;0,0448
2207,00;0,0449
2206,00;0,0450
2205,00;0,0449
2204,00;0,0447
2203,00;0,0445
2202,00;0,0444
2201,00;0,0445
2200,00;0,0446
2199,00;0,0448
2198,00;0,0450
2197,00;0,0451
2196,00;0,0451
2195,00;0,0451
2194,00;0,0450
2193,00;0,0449
2192,00;0,0449
2191,00;0,0449
2190,00;0,0448
2189,00;0,0448
2188,00;0,0449
2187,00;0,0450
2186,00;0,0451
2185,00;0,0452
2184,00;0,0452
2183,00;0,0451
2182,00;0,0448
2181,00;0,0445
2180,00;0,0443
2179,00;0,0441
2178,00;0,0440
2177,00;0,0439
2176,00;0,0437
2175,00;0,0437
2174,00;0,0438
2173,00;0,0440
2172,00;0,0443
2171,00;0,0444
2170,00;0,0445
2169,00;0,0446
2168,00;0,0448
2167,00;0,0450
2166,00;0,0452
2165,00;0,0452
2164,00;0,0452
2163,00;0,0451
2162,00;0,0448
2161,00;0,0444
2160,00;0,0437
2159,00;0,0430
2158,00;0,0425
2157,00;0,0423
2156,00;0,0423
2155,00;0,0424
2154,00;0,0425
2153,00;0,0424
2152,00;0,0424
2151,00;0,0424
2150,00;0,0425
2149,00;0,0428
2148,00;0,0430
2147,00;0,0431
2146,00;0,0431
2145,00;0,0432
2144,00;0,0431
2143,00;0,0431
2142,00;0,0429
2141,00;0,0429
2140,00;0,0429
2139,00;0,0429
2138,00;0,0429
2137,00;0,0429
2136,00;0,0427
2135,00;0,0425
2134,00;0,0424
2133,00;0,0424
2132,00;0,0424
2131,00;0,0425
2130,00;0,0426
2129,00;0,0427
2128,00;0,0429
2127,00;0,0430
2126,00;0,0430
2125,00;0,0430
2124,00;0,0429
2123,00;0,0429
2122,00;0,0429
2121,00;0,0430
2120,00;0,0432
2119,00;0,0435
2118,00;0,0438
2117,00;0,0439
2116,00;0,0440
2115,00;0,0440
2114,00;0,0440
2113,00;0,0438
2112,00;0,0436
2111,00;0,0435
2110,00;0,0435
2109,00;0,0436
2108,00;0,0436
2107,00;0,0436
2106,00;0,0436
2105,00;0,0436
2104,00;0,0436
2103,00;0,0436
2102,00;0,0436
2101,00;0,0435
2100,00;0,0434
2099,00;0,0432
2098,00;0,0432
2097,00;0,0432
2096,00;0,0432
2095,00;0,0432
2094,00;0,0432
2093,00;0,0431
2092,00;0,0431
2091,00;0,0432
2090,00;0,0433
2089,00;0,0434
2088,00;0,0434
2087,00;0,0435
2086,00;0,0436
2085,00;0,0436
2084,00;0,0435
2083,00;0,0435
2082,00;0,0435
2081,00;0,0436
2080,00;0,0437
2079,00;0,0438
2078,00;0,0437
2077,00;0,0436
2076,00;0,0435
2075,00;0,0434
2074,00;0,0433
2073,00;0,0432
2072,00;0,0432
2071,00;0,0431
2070,00;0,0431
2069,00;0,0431
2068,00;0,0430
2067,00;0,0430
2066,00;0,0429
2065,00;0,0430
2064,00;0,0431
2063,00;0,0432
2062,00;0,0432
2061,00;0,0432
2060,00;0,0433
2059,00;0,0433
2058,00;0,0433
2057,00;0,0434
2056,00;0,0435
2055,00;0,0436
2054,00;0,0438
2053,00;0,0440
2052,00;0,0442
2051,00;0,0442
2050,00;0,0440
2049,00;0,0437
2048,00;0,0435
2047,00;0,0435
2046,00;0,0434
2045,00;0,0433
2044,00;0,0430
2043,00;0,0428
2042,00;0,0428
2041,00;0,0429
2040,00;0,0429
2039,00;0,0428
2038,00;0,0427
2037,00;0,0427
2036,00;0,0428
2035,00;0,0429
2034,00;0,0428
2033,00;0,0426
2032,00;0,0424
2031,00;0,0421
2030,00;0,0418
2029,00;0,0416
2028,00;0,0417
2027,00;0,0419
2026,00;0,0421
2025,00;0,0422
2024,00;0,0420
2023,00;0,0418
2022,00;0,0416
2021,00;0,0416
2020,00;0,0416
2019,00;0,0417
2018,00;0,0418
2017,00;0,0418
2016,00;0,0417
2015,00;0,0415
2014,00;0,0413
2013,00;0,0413
2012,00;0,0414
2011,00;0,0416
2010,00;0,0417
2009,00;0,0416
2008,00;0,0416
2007,00;0,0415
2006,00;0,0414
2005,00;0,0414
2004,00;0,0414
2003,00;0,0413
2002,00;0,0413
2001,00;0,0413
2000,00;0,0414
1999,00;0,0414
1998,00;0,0414
1997,00;0,0415
1996,00;0,0416
1995,00;0,0417
1994,00;0,0419
1993,00;0,0420
1992,00;0,0420
1991,00;0,0421
1990,00;0,0422
1989,00;0,0421
1988,00;0,0421
1987,00;0,0421
1986,00;0,0421
1985,00;0,0422
1984,00;0,0422
1983,00;0,0423
1982,00;0,0425
1981,00;0,0428
1980,00;0,0429
1979,00;0,0428
1978,00;0,0424
1977,00;0,0418
1976,00;0,0413
1975,00;0,0409
1974,00;0,0408
1973,00;0,0408
1972,00;0,0408
1971,00;0,0407
1970,00;0,0406
1969,00;0,0405
1968,00;0,0404
1967,00;0,0404
1966,00;0,0406
1965,00;0,0407
1964,00;0,0408
1963,00;0,0408
1962,00;0,0407
1961,00;0,0406
1960,00;0,0405
1959,00;0,0404
1958,00;0,0403
1957,00;0,0403
1956,00;0,0403
1955,00;0,0403
1954,00;0,0405
1953,00;0,0407
1952,00;0,0407
1951,00;0,0407
1950,00;0,0407
1949,00;0,0407
1948,00;0,0408
1947,00;0,0408
1946,00;0,0408
1945,00;0,0407
1944,00;0,0406
1943,00;0,0405
1942,00;0,0404
1941,00;0,0405
1940,00;0,0405
1939,00;0,0406
1938,00;0,0406
1937,00;0,0405
1936,00;0,0405
1935,00;0,0405
1934,00;0,0405
1933,00;0,0405
1932,00;0,0407
1931,00;0,0408
1930,00;0,0410
1929,00;0,0410
1928,00;0,0409
1927,00;0,0408
1926,00;0,0407
1925,00;0,0406
1924,00;0,0406
1923,00;0,0406
1922,00;0,0407
1921,00;0,0408
1920,00;0,0408
1919,00;0,0408
1918,00;0,0408
1917,00;0,0407
1916,00;0,0407
1915,00;0,0406
1914,00;0,0406
1913,00;0,0406
1912,00;0,0406
1911,00;0,0406
1910,00;0,0406
1909,00;0,0406
1908,00;0,0406
1907,00;0,0406
1906,00;0,0407
1905,00;0,0407
1904,00;0,0407
1903,00;0,0407
1902,00;0,0407
1901,00;0,0407
1900,00;0,0407
1899,00;0,0407
1898,00;0,0407
1897,00;0,0407
1896,00;0,0407
1895,00;0,0407
1894,00;0,0407
1893,00;0,0406
1892,00;0,0406
1891,00;0,0405
1890,00;0,0405
1889,00;0,0405
1888,00;0,0405
1887,00;0,0406
1886,00;0,0407
1885,00;0,0406
1884,00;0,0405
1883,00;0,0404
1882,00;0,0404
1881,00;0,0403
1880,00;0,0403
1879,00;0,0403
1878,00;0,0403
1877,00;0,0403
1876,00;0,0403
1875,00;0,0403
1874,00;0,0402
1873,00;0,0402
1872,00;0,0402
1871,00;0,0402
1870,00;0,0402
1869,00;0,0402
1868,00;0,0403
1867,00;0,0403
1866,00;0,0403
1865,00;0,0403
1864,00;0,0403
1863,00;0,0403
1862,00;0,0402
1861,00;0,0401
1860,00;0,0400
1859,00;0,0400
1858,00;0,0399
1857,00;0,0399
1856,00;0,0399
1855,00;0,0400
1854,00;0,0400
1853,00;0,0401
1852,00;0,0401
1851,00;0,0400
1850,00;0,0400
1849,00;0,0400
1848,00;0,0400
1847,00;0,0401
1846,00;0,0401
1845,00;0,0401
1844,00;0,0400
1843,00;0,0400
1842,00;0,0399
1841,00;0,0399
1840,00;0,0398
1839,00;0,0398
1838,00;0,0398
1837,00;0,0398
1836,00;0,0398
1835,00;0,0398
1834,00;0,0398
1833,00;0,0398
1832,00;0,0398
1831,00;0,0398
1830,00;0,0398
1829,00;0,0398
1828,00;0,0399
1827,00;0,0400
1826,00;0,0400
1825,00;0,0399
1824,00;0,0399
1823,00;0,0398
1822,00;0,0398
1821,00;0,0398
1820,00;0,0397
1819,00;0,0397
1818,00;0,0396
1817,00;0,0396
1816,00;0,0395
1815,00;0,0395
1814,00;0,0396
1813,00;0,0397
1812,00;0,0397
1811,00;0,0398
1810,00;0,0398
1809,00;0,0397
1808,00;0,0397
1807,00;0,0397
1806,00;0,0397
1805,00;0,0397
1804,00;0,0397
1803,00;0,0397
1802,00;0,0398
1801,00;0,0399
1800,00;0,0399
1799,00;0,0399
1798,00;0,0399
1797,00;0,0399
1796,00;0,0398
1795,00;0,0398
1794,00;0,0398
1793,00;0,0398
1792,00;0,0399
1791,00;0,0399
1790,00;0,0399
1789,00;0,0398
1788,00;0,0398
1787,00;0,0398
1786,00;0,0398
1785,00;0,0398
1784,00;0,0398
1783,00;0,0398
1782,00;0,0398
1781,00;0,0398
1780,00;0,0398
1779,00;0,0397
1778,00;0,0397
1777,00;0,0396
1776,00;0,0395
1775,00;0,0395
1774,00;0,0394
1773,00;0,0395
1772,00;0,0395
1771,00;0,0395
1770,00;0,0395
1769,00;0,0395
1768,00;0,0395
1767,00;0,0395
1766,00;0,0395
1765,00;0,0394
1764,00;0,0394
1763,00;0,0394
1762,00;0,0394
1761,00;0,0394
1760,00;0,0395
1759,00;0,0395
1758,00;0,0395
1757,00;0,0395
1756,00;0,0394
1755,00;0,0393
1754,00;0,0393
1753,00;0,0393
1752,00;0,0393
1751,00;0,0393
1750,00;0,0393
1749,00;0,0394
1748,00;0,0394
1747,00;0,0394
1746,00;0,0393
1745,00;0,0393
1744,00;0,0393
1743,00;0,0392
1742,00;0,0392
1741,00;0,0393
1740,00;0,0393
1739,00;0,0393
1738,00;0,0393
1737,00;0,0393
1736,00;0,0393
1735,00;0,0393
1734,00;0,0393
1733,00;0,0393
1732,00;0,0393
1731,00;0,0394
1730,00;0,0394
1729,00;0,0393
1728,00;0,0393
1727,00;0,0393
1726,00;0,0392
1725,00;0,0392
1724,00;0,0392
1723,00;0,0393
1722,00;0,0393
1721,00;0,0392
1720,00;0,0392
1719,00;0,0391
1718,00;0,0391
1717,00;0,0391
1716,00;0,0392
1715,00;0,0392
1714,00;0,0391
1713,00;0,0391
1712,00;0,0392
1711,00;0,0392
1710,00;0,0392
1709,00;0,0392
1708,00;0,0392
1707,00;0,0392
1706,00;0,0391
1705,00;0,0391
1704,00;0,0391
1703,00;0,0390
1702,00;0,0391
1701,00;0,0391
1700,00;0,0391
1699,00;0,0391
1698,00;0,0391
1697,00;0,0391
1696,00;0,0390
1695,00;0,0390
1694,00;0,0391
1693,00;0,0391
1692,00;0,0390
1691,00;0,0390
1690,00;0,0389
1689,00;0,0389
1688,00;0,0389
1687,00;0,0388
1686,00;0,0388
1685,00;0,0388
1684,00;0,0387
1683,00;0,0387
1682,00;0,0388
1681,00;0,0388
1680,00;0,0388
1679,00;0,0388
1678,00;0,0388
1677,00;0,0388
1676,00;0,0388
1675,00;0,0388
1674,00;0,0388
1673,00;0,0388
1672,00;0,0388
1671,00;0,0387
1670,00;0,0387
1669,00;0,0387
1668,00;0,0387
1667,00;0,0387
1666,00;0,0387
1665,00;0,0387
1664,00;0,0387
1663,00;0,0387
1662,00;0,0387
1661,00;0,0387
1660,00;0,0387
1659,00;0,0387
1658,00;0,0387
1657,00;0,0387
1656,00;0,0387
1655,00;0,0387
1654,00;0,0387
1653,00;0,0387
1652,00;0,0387
1651,00;0,0387
1650,00;0,0387
1649,00;0,0387
1648,00;0,0387
1647,00;0,0387
1646,00;0,0387
1645,00;0,0387
1644,00;0,0387
1643,00;0,0387
1642,00;0,0387
1641,00;0,0388
1640,00;0,0388
1639,00;0,0388
1638,00;0,0387
1637,00;0,0387
1636,00;0,0386
1635,00;0,0386
1634,00;0,0387
1633,00;0,0387
1632,00;0,0387
1631,00;0,0387
1630,00;0,0386
1629,00;0,0386
1628,00;0,0386
1627,00;0,0385
1626,00;0,0385
1625,00;0,0386
1624,00;0,0386
1623,00;0,0386
1622,00;0,0385
1621,00;0,0385
1620,00;0,0385
1619,00;0,0385
1618,00;0,0385
1617,00;0,0385
1616,00;0,0384
1615,00;0,0384
1614,00;0,0384
1613,00;0,0384
1612,00;0,0384
1611,00;0,0384
1610,00;0,0384
1609,00;0,0383
1608,00;0,0383
1607,00;0,0382
1606,00;0,0382
1605,00;0,0382
1604,00;0,0382
1603,00;0,0382
1602,00;0,0382
1601,00;0,0382
1600,00;0,0382
1599,00;0,0382
1598,00;0,0381
1597,00;0,0381
1596,00;0,0381
1595,00;0,0381
1594,00;0,0381
1593,00;0,0381
1592,00;0,0381
1591,00;0,0381
1590,00;0,0381
1589,00;0,0381
1588,00;0,0381
1587,00;0,0381
1586,00;0,0380
1585,00;0,0380
1584,00;0,0380
1583,00;0,0379
1582,00;0,0379
1581,00;0,0379
1580,00;0,0379
1579,00;0,0379
1578,00;0,0379
1577,00;0,0378
1576,00;0,0378
1575,00;0,0378
1574,00;0,0378
1573,00;0,0379
1572,00;0,0379
1571,00;0,0379
1570,00;0,0379
1569,00;0,0379
1568,00;0,0378
1567,00;0,0378
1566,00;0,0378
1565,00;0,0378
1564,00;0,0378
1563,00;0,0379
1562,00;0,0380
1561,00;0,0381
1560,00;0,0381
1559,00;0,0381
1558,00;0,0381
1557,00;0,0380
1556,00;0,0380
1555,00;0,0380
1554,00;0,0379
1553,00;0,0379
1552,00;0,0379
1551,00;0,0379
1550,00;0,0380
1549,00;0,0381
1548,00;0,0382
1547,00;0,0382
1546,00;0,0383
1545,00;0,0383
1544,00;0,0383
1543,00;0,0383
1542,00;0,0384
1541,00;0,0385
1540,00;0,0386
1539,00;0,0387
1538,00;0,0388
1537,00;0,0389
1536,00;0,0390
1535,00;0,0391
1534,00;0,0392
1533,00;0,0393
1532,00;0,0394
1531,00;0,0395
1530,00;0,0396
1529,00;0,0398
1528,00;0,0399
1527,00;0,0401
1526,00;0,0402
1525,00;0,0403
1524,00;0,0405
1523,00;0,0406
1522,00;0,0407
1521,00;0,0409
1520,00;0,0410
1519,00;0,0411
1518,00;0,0413
1517,00;0,0414
1516,00;0,0416
1515,00;0,0417
1514,00;0,0418
1513,00;0,0420
1512,00;0,0421
1511,00;0,0422
1510,00;0,0423
1509,00;0,0424
1508,00;0,0426
1507,00;0,0429
1506,00;0,0432
1505,00;0,0434
1504,00;0,0435
1503,00;0,0436
1502,00;0,0438
1501,00;0,0439
1500,00;0,0441
1499,00;0,0442
1498,00;0,0444
1497,00;0,0446
1496,00;0,0448
1495,00;0,0451
1494,00;0,0453
1493,00;0,0455
1492,00;0,0457
1491,00;0,0459
1490,00;0,0461
1489,00;0,0463
1488,00;0,0464
1487,00;0,0466
1486,00;0,0468
1485,00;0,0469
1484,00;0,0471
1483,00;0,0472
1482,00;0,0473
1481,00;0,0474
1480,00;0,0475
1479,00;0,0475
1478,00;0,0476
1477,00;0,0477
1476,00;0,0478
1475,00;0,0479
1474,00;0,0480
1473,00;0,0482
1472,00;0,0484
1471,00;0,0485
1470,00;0,0486
1469,00;0,0486
1468,00;0,0487
1467,00;0,0488
1466,00;0,0490
1465,00;0,0492
1464,00;0,0494
1463,00;0,0495
1462,00;0,0497
1461,00;0,0498
1460,00;0,0499
1459,00;0,0500
1458,00;0,0502
1457,00;0,0504
1456,00;0,0507
1455,00;0,0509
1454,00;0,0511
1453,00;0,0512
1452,00;0,0513
1451,00;0,0515
1450,00;0,0517
1449,00;0,0519
1448,00;0,0520
1447,00;0,0522
1446,00;0,0523
1445,00;0,0524
1444,00;0,0525
1443,00;0,0527
1442,00;0,0528
1441,00;0,0529
1440,00;0,0530
1439,00;0,0531
1438,00;0,0532
1437,00;0,0534
1436,00;0,0536
1435,00;0,0537
1434,00;0,0537
1433,00;0,0537
1432,00;0,0538
1431,00;0,0538
1430,00;0,0538
1429,00;0,0538
1428,00;0,0537
1427,00;0,0537
1426,00;0,0537
1425,00;0,0536
1424,00;0,0536
1423,00;0,0535
1422,00;0,0534
1421,00;0,0533
1420,00;0,0531
1419,00;0,0529
1418,00;0,0527
1417,00;0,0525
1416,00;0,0523
1415,00;0,0520
1414,00;0,0517
1413,00;0,0513
1412,00;0,0509
1411,00;0,0505
1410,00;0,0500
1409,00;0,0495
1408,00;0,0489
1407,00;0,0484
1406,00;0,0478
1405,00;0,0472
1404,00;0,0468
1403,00;0,0463
1402,00;0,0459
1401,00;0,0456
1400,00;0,0452
1399,00;0,0448
1398,00;0,0444
1397,00;0,0441
1396,00;0,0436
1395,00;0,0432
1394,00;0,0429
1393,00;0,0426
1392,00;0,0423
1391,00;0,0421
1390,00;0,0418
1389,00;0,0416
1388,00;0,0413
1387,00;0,0411
1386,00;0,0409
1385,00;0,0407
1384,00;0,0406
1383,00;0,0404
1382,00;0,0402
1381,00;0,0400
1380,00;0,0399
1379,00;0,0397
1378,00;0,0396
1377,00;0,0395
1376,00;0,0394
1375,00;0,0393
1374,00;0,0392
1373,00;0,0390
1372,00;0,0389
1371,00;0,0387
1370,00;0,0386
1369,00;0,0385
1368,00;0,0384
1367,00;0,0383
1366,00;0,0382
1365,00;0,0381
1364,00;0,0381
1363,00;0,0380
1362,00;0,0379
1361,00;0,0378
1360,00;0,0377
1359,00;0,0376
1358,00;0,0375
1357,00;0,0374
1356,00;0,0373
1355,00;0,0373
1354,00;0,0372
1353,00;0,0371
1352,00;0,0370
1351,00;0,0369
1350,00;0,0369
1349,00;0,0368
1348,00;0,0367
1347,00;0,0367
1346,00;0,0366
1345,00;0,0365
1344,00;0,0365
1343,00;0,0364
1342,00;0,0364
1341,00;0,0363
1340,00;0,0362
1339,00;0,0362
1338,00;0,0361
1337,00;0,0361
1336,00;0,0360
1335,00;0,0359
1334,00;0,0358
1333,00;0,0357
1332,00;0,0357
1331,00;0,0356
1330,00;0,0356
1329,00;0,0355
1328,00;0,0355
1327,00;0,0354
1326,00;0,0354
1325,00;0,0353
1324,00;0,0353
1323,00;0,0352
1322,00;0,0352
1321,00;0,0351
1320,00;0,0350
1319,00;0,0350
1318,00;0,0350
1317,00;0,0349
1316,00;0,0349
1315,00;0,0348
1314,00;0,0348
1313,00;0,0347
1312,00;0,0347
1311,00;0,0347
1310,00;0,0347
1309,00;0,0346
1308,00;0,0346
1307,00;0,0345
1306,00;0,0345
1305,00;0,0344
1304,00;0,0343
1303,00;0,0343
1302,00;0,0342
1301,00;0,0342
1300,00;0,0342
1299,00;0,0341
1298,00;0,0341
1297,00;0,0341
1296,00;0,0341
1295,00;0,0341
1294,00;0,0341
1293,00;0,0340
1292,00;0,0339
1291,00;0,0339
1290,00;0,0339
1289,00;0,0338
1288,00;0,0338
1287,00;0,0338
1286,00;0,0337
1285,00;0,0337
1284,00;0,0336
1283,00;0,0336
1282,00;0,0335
1281,00;0,0335
1280,00;0,0335
1279,00;0,0334
1278,00;0,0334
1277,00;0,0333
1276,00;0,0333
1275,00;0,0332
1274,00;0,0332
1273,00;0,0331
1272,00;0,0331
1271,00;0,0330
1270,00;0,0330
1269,00;0,0330
1268,00;0,0330
1267,00;0,0330
1266,00;0,0330
1265,00;0,0329
1264,00;0,0329
1263,00;0,0329
1262,00;0,0329
1261,00;0,0330
1260,00;0,0329
1259,00;0,0329
1258,00;0,0329
1257,00;0,0329
1256,00;0,0328
1255,00;0,0328
1254,00;0,0328
1253,00;0,0329
1252,00;0,0329
1251,00;0,0329
1250,00;0,0329
1249,00;0,0329
1248,00;0,0329
1247,00;0,0330
1246,00;0,0330
1245,00;0,0330
1244,00;0,0330
1243,00;0,0330
1242,00;0,0330
1241,00;0,0331
1240,00;0,0331
1239,00;0,0331
1238,00;0,0331
1237,00;0,0331
1236,00;0,0332
1235,00;0,0332
1234,00;0,0332
1233,00;0,0332
1232,00;0,0332
1231,00;0,0333
1230,00;0,0332
1229,00;0,0332
1228,00;0,0333
1227,00;0,0333
1226,00;0,0334
1225,00;0,0334
1224,00;0,0334
1223,00;0,0333
1222,00;0,0334
1221,00;0,0334
1220,00;0,0335
1219,00;0,0336
1218,00;0,0336
1217,00;0,0337
1216,00;0,0337
1215,00;0,0337
1214,00;0,0337
1213,00;0,0336
1212,00;0,0337
1211,00;0,0337
1210,00;0,0337
1209,00;0,0338
1208,00;0,0338
1207,00;0,0339
1206,00;0,0340
1205,00;0,0341
1204,00;0,0341
1203,00;0,0341
1202,00;0,0341
1201,00;0,0341
1200,00;0,0342
1199,00;0,0343
1198,00;0,0344
1197,00;0,0344
1196,00;0,0345
1195,00;0,0345
1194,00;0,0345
1193,00;0,0345
1192,00;0,0346
1191,00;0,0346
1190,00;0,0347
1189,00;0,0347
1188,00;0,0347
1187,00;0,0348
1186,00;0,0348
1185,00;0,0348
1184,00;0,0348
1183,00;0,0349
1182,00;0,0350
1181,00;0,0351
1180,00;0,0352
1179,00;0,0352
1178,00;0,0353
1177,00;0,0353
1176,00;0,0353
1175,00;0,0353
1174,00;0,0353
1173,00;0,0353
1172,00;0,0354
1171,00;0,0354
1170,00;0,0354
1169,00;0,0354
1168,00;0,0354
1167,00;0,0354
1166,00;0,0355
1165,00;0,0355
1164,00;0,0355
1163,00;0,0355
1162,00;0,0355
1161,00;0,0355
1160,00;0,0355
1159,00;0,0356
1158,00;0,0356
1157,00;0,0356
1156,00;0,0356
1155,00;0,0356
1154,00;0,0355
1153,00;0,0355
1152,00;0,0355
1151,00;0,0355
1150,00;0,0355
1149,00;0,0356
1148,00;0,0356
1147,00;0,0356
1146,00;0,0357
1145,00;0,0357
1144,00;0,0357
1143,00;0,0357
1142,00;0,0356
1141,00;0,0356
1140,00;0,0355
1139,00;0,0355
1138,00;0,0355
1137,00;0,0354
1136,00;0,0355
1135,00;0,0355
1134,00;0,0355
1133,00;0,0354
1132,00;0,0354
1131,00;0,0354
1130,00;0,0354
1129,00;0,0354
1128,00;0,0354
1127,00;0,0354
1126,00;0,0354
1125,00;0,0354
1124,00;0,0354
1123,00;0,0354
1122,00;0,0354
1121,00;0,0354
1120,00;0,0354
1119,00;0,0354
1118,00;0,0354
1117,00;0,0354
1116,00;0,0354
1115,00;0,0355
1114,00;0,0355
1113,00;0,0356
1112,00;0,0356
1111,00;0,0356
1110,00;0,0356
1109,00;0,0356
1108,00;0,0356
1107,00;0,0355
1106,00;0,0355
1105,00;0,0354
1104,00;0,0355
1103,00;0,0355
1102,00;0,0356
1101,00;0,0356
1100,00;0,0356
1099,00;0,0357
1098,00;0,0357
1097,00;0,0358
1096,00;0,0357
1095,00;0,0357
1094,00;0,0356
1093,00;0,0356
1092,00;0,0356
1091,00;0,0357
1090,00;0,0356
1089,00;0,0356
1088,00;0,0355
1087,00;0,0355
1086,00;0,0355
1085,00;0,0356
1084,00;0,0356
1083,00;0,0356
1082,00;0,0356
1081,00;0,0356
1080,00;0,0355
1079,00;0,0355
1078,00;0,0354
1077,00;0,0354
1076,00;0,0354
1075,00;0,0354
1074,00;0,0354
1073,00;0,0353
1072,00;0,0352
1071,00;0,0352
1070,00;0,0352
1069,00;0,0352
1068,00;0,0351
1067,00;0,0351
1066,00;0,0350
1065,00;0,0349
1064,00;0,0348
1063,00;0,0347
1062,00;0,0347
1061,00;0,0348
1060,00;0,0348
1059,00;0,0348
1058,00;0,0348
1057,00;0,0348
1056,00;0,0348
1055,00;0,0347
1054,00;0,0346
1053,00;0,0346
1052,00;0,0345
1051,00;0,0345
1050,00;0,0345
1049,00;0,0345
1048,00;0,0345
1047,00;0,0345
1046,00;0,0345
1045,00;0,0345
1044,00;0,0345
1043,00;0,0345
1042,00;0,0345
1041,00;0,0344
1040,00;0,0344
1039,00;0,0344
1038,00;0,0344
1037,00;0,0344
1036,00;0,0344
1035,00;0,0344
1034,00;0,0344
1033,00;0,0345
1032,00;0,0346
1031,00;0,0346
1030,00;0,0347
1029,00;0,0347
1028,00;0,0347
1027,00;0,0347
1026,00;0,0347
1025,00;0,0347
1024,00;0,0347
1023,00;0,0348
1022,00;0,0348
1021,00;0,0348
1020,00;0,0348
1019,00;0,0348
1018,00;0,0348
1017,00;0,0348
1016,00;0,0348
1015,00;0,0348
1014,00;0,0348
1013,00;0,0348
1012,00;0,0349
1011,00;0,0349
1010,00;0,0349
1009,00;0,0349
1008,00;0,0349
1007,00;0,0349
1006,00;0,0349
1005,00;0,0350
1004,00;0,0350
1003,00;0,0350
1002,00;0,0350
1001,00;0,0351
1000,00;0,0352
999,00;0,0352
998,00;0,0352
997,00;0,0351
996,00;0,0350
995,00;0,0350
994,00;0,0350
993,00;0,0349
992,00;0,0349
991,00;0,0349
990,00;0,0348
989,00;0,0348
988,00;0,0348
987,00;0,0347
986,00;0,0347
985,00;0,0346
984,00;0,0346
983,00;0,0346
982,00;0,0346
981,00;0,0345
980,00;0,0345
979,00;0,0345
978,00;0,0345
977,00;0,0344
976,00;0,0344
975,00;0,0343
974,00;0,0343
973,00;0,0343
972,00;0,0343
971,00;0,0343
970,00;0,0342
969,00;0,0341
968,00;0,0341
967,00;0,0340
966,00;0,0339
965,00;0,0339
964,00;0,0339
963,00;0,0339
962,00;0,0339
961,00;0,0339
960,00;0,0339
959,00;0,0339
958,00;0,0339
957,00;0,0339
956,00;0,0338
955,00;0,0338
954,00;0,0338
953,00;0,0337
952,00;0,0337
951,00;0,0337
950,00;0,0337
949,00;0,0337
948,00;0,0337
947,00;0,0337
946,00;0,0336
945,00;0,0336
944,00;0,0336
943,00;0,0336
942,00;0,0336
941,00;0,0336
940,00;0,0336
939,00;0,0336
938,00;0,0337
937,00;0,0337
936,00;0,0338
935,00;0,0338
934,00;0,0339
933,00;0,0339
932,00;0,0339
931,00;0,0338
930,00;0,0338
929,00;0,0337
928,00;0,0337
927,00;0,0337
926,00;0,0337
925,00;0,0337
924,00;0,0337
923,00;0,0337
922,00;0,0337
921,00;0,0336
920,00;0,0336
919,00;0,0336
918,00;0,0336
917,00;0,0335
916,00;0,0335
915,00;0,0335
914,00;0,0334
913,00;0,0334
912,00;0,0333
911,00;0,0333
910,00;0,0332
909,00;0,0331
908,00;0,0331
907,00;0,0330
906,00;0,0330
905,00;0,0330
904,00;0,0330
903,00;0,0329
902,00;0,0329
901,00;0,0328
900,00;0,0328
899,00;0,0327
898,00;0,0327
897,00;0,0326
896,00;0,0325
895,00;0,0325
894,00;0,0324
893,00;0,0324
892,00;0,0324
891,00;0,0323
890,00;0,0323
889,00;0,0322
888,00;0,0322
887,00;0,0323
886,00;0,0325
885,00;0,0327
884,00;0,0331
883,00;0,0337
882,00;0,0345
881,00;0,0355
880,00;0,0366
879,00;0,0376
878,00;0,0383
877,00;0,0387
876,00;0,0387
875,00;0,0383
874,00;0,0375
873,00;0,0364
872,00;0,0352
871,00;0,0342
870,00;0,0334
869,00;0,0329
868,00;0,0325
867,00;0,0322
866,00;0,0320
865,00;0,0318
864,00;0,0317
863,00;0,0316
862,00;0,0315
861,00;0,0315
860,00;0,0314
859,00;0,0313
858,00;0,0312
857,00;0,0310
856,00;0,0310
855,00;0,0309
854,00;0,0307
853,00;0,0306
852,00;0,0305
851,00;0,0303
850,00;0,0302
849,00;0,0302
848,00;0,0301
847,00;0,0301
846,00;0,0301
845,00;0,0301
844,00;0,0299
843,00;0,0298
842,00;0,0296
841,00;0,0296
840,00;0,0295
839,00;0,0295
838,00;0,0295
837,00;0,0294
836,00;0,0293
835,00;0,0292
834,00;0,0292
833,00;0,0292
832,00;0,0292
831,00;0,0291
830,00;0,0290
829,00;0,0289
828,00;0,0289
827,00;0,0289
826,00;0,0288
825,00;0,0288
824,00;0,0288
823,00;0,0288
822,00;0,0287
821,00;0,0287
820,00;0,0288
819,00;0,0289
818,00;0,0289
817,00;0,0288
816,00;0,0288
815,00;0,0288
814,00;0,0288
813,00;0,0288
812,00;0,0288
811,00;0,0288
810,00;0,0289
809,00;0,0289
808,00;0,0290
807,00;0,0292
806,00;0,0293
805,00;0,0295
804,00;0,0295
803,00;0,0295
802,00;0,0294
801,00;0,0295
800,00;0,0296
799,00;0,0298
798,00;0,0300
797,00;0,0301
796,00;0,0303
795,00;0,0304
794,00;0,0305
793,00;0,0305
792,00;0,0306
791,00;0,0308
790,00;0,0311
789,00;0,0313
788,00;0,0315
787,00;0,0316
786,00;0,0316
785,00;0,0317
784,00;0,0317
783,00;0,0318
782,00;0,0319
781,00;0,0319
780,00;0,0320
779,00;0,0321
778,00;0,0323
777,00;0,0325
776,00;0,0328
775,00;0,0330
774,00;0,0333
773,00;0,0335
772,00;0,0337
771,00;0,0339
770,00;0,0341
769,00;0,0343
768,00;0,0345
767,00;0,0348
766,00;0,0351
765,00;0,0356
764,00;0,0361
763,00;0,0365
762,00;0,0369
761,00;0,0372
760,00;0,0375
759,00;0,0380
758,00;0,0384
757,00;0,0389
756,00;0,0394
755,00;0,0400
754,00;0,0408
753,00;0,0417
752,00;0,0427
751,00;0,0438
750,00;0,0448
749,00;0,0458
748,00;0,0468
747,00;0,0479
746,00;0,0492
745,00;0,0506
744,00;0,0522
743,00;0,0539
742,00;0,0557
741,00;0,0574
740,00;0,0591
739,00;0,0607
738,00;0,0625
737,00;0,0644
736,00;0,0665
735,00;0,0686
734,00;0,0706
733,00;0,0725
732,00;0,0744
731,00;0,0763
730,00;0,0782
729,00;0,0799
728,00;0,0813
727,00;0,0825
726,00;0,0835
725,00;0,0843
724,00;0,0851
723,00;0,0858
722,00;0,0864
721,00;0,0869
720,00;0,0877
719,00;0,0886
718,00;0,0898
717,00;0,0911
716,00;0,0925
715,00;0,0938
714,00;0,0952
713,00;0,0968
712,00;0,0984
711,00;0,1001
710,00;0,1017
709,00;0,1032
708,00;0,1047
707,00;0,1062
706,00;0,1078
705,00;0,1095
704,00;0,1113
703,00;0,1131
702,00;0,1150
701,00;0,1169
700,00;0,1189
699,00;0,1209
698,00;0,1227
697,00;0,1245
696,00;0,1263
695,00;0,1282
694,00;0,1299
693,00;0,1315
692,00;0,1327
691,00;0,1336
690,00;0,1343
689,00;0,1348
688,00;0,1349
687,00;0,1348
686,00;0,1344
685,00;0,1339
684,00;0,1334
683,00;0,1329
682,00;0,1324
681,00;0,1318
680,00;0,1312
679,00;0,1306
678,00;0,1303
677,00;0,1302
676,00;0,1303
675,00;0,1305
674,00;0,1307
673,00;0,1310
672,00;0,1315
671,00;0,1319
670,00;0,1326
669,00;0,1336
668,00;0,1350
667,00;0,1363
666,00;0,1368
665,00;0,1371
664,00;0,1377
663,00;0,1387
662,00;0,1399
661,00;0,1412
660,00;0,1428
659,00;0,1443
658,00;0,1458
657,00;0,1473
656,00;0,1489
655,00;0,1506
654,00;0,1524
653,00;0,1544
652,00;0,1567
651,00;0,1590
650,00;0,1614
649,00;0,1638
648,00;0,1664
647,00;0,1690
646,00;0,1715
645,00;0,1742
644,00;0,1771
643,00;0,1802
642,00;0,1832
641,00;0,1861
640,00;0,1891
639,00;0,1920
638,00;0,1949
637,00;0,1975
636,00;0,2001
635,00;0,2025
634,00;0,2045
633,00;0,2065
632,00;0,2083
631,00;0,2097
630,00;0,2105
629,00;0,2110
628,00;0,2114
627,00;0,2116
626,00;0,2119
625,00;0,2124
624,00;0,2131
623,00;0,2137
622,00;0,2143
621,00;0,2150
620,00;0,2158
619,00;0,2166
618,00;0,2173
617,00;0,2182
616,00;0,2194
615,00;0,2206
614,00;0,2217
613,00;0,2230
612,00;0,2245
611,00;0,2259
610,00;0,2270
609,00;0,2283
608,00;0,2298
607,00;0,2312
606,00;0,2323
605,00;0,2333
604,00;0,2345
603,00;0,2356
602,00;0,2366
601,00;0,2377
600,00;0,2391
599,00;0,2406
598,00;0,2421
597,00;0,2437
596,00;0,2454
595,00;0,2472
594,00;0,2488
593,00;0,2506
592,00;0,2528
591,00;0,2552
590,00;0,2575
589,00;0,2600
588,00;0,2628
587,00;0,2656
586,00;0,2683
585,00;0,2709
584,00;0,2733
583,00;0,2754
582,00;0,2771
581,00;0,2787
580,00;0,2805
579,00;0,2823
578,00;0,2837
577,00;0,2850
576,00;0,2862
575,00;0,2872
574,00;0,2882
573,00;0,2894
572,00;0,2909
571,00;0,2920
570,00;0,2928
569,00;0,2938
568,00;0,2954
567,00;0,2975
566,00;0,2999
565,00;0,3028
564,00;0,3059
563,00;0,3089
562,00;0,3115
561,00;0,3143
560,00;0,3175
559,00;0,3210
558,00;0,3246
557,00;0,3286
556,00;0,3332
555,00;0,3376
554,00;0,3415
553,00;0,3450
552,00;0,3485
551,00;0,3517
550,00;0,3545
549,00;0,3572
548,00;0,3598
547,00;0,3616
546,00;0,3631
545,00;0,3649
544,00;0,3669
543,00;0,3683
542,00;0,3686
541,00;0,3682
540,00;0,3677
539,00;0,3670
538,00;0,3662
537,00;0,3658
536,00;0,3655
535,00;0,3643
534,00;0,3619
533,00;0,3594
532,00;0,3573
531,00;0,3552
530,00;0,3526
529,00;0,3500
528,00;0,3476
527,00;0,3449
526,00;0,3420
525,00;0,3392
524,00;0,3367
523,00;0,3336
522,00;0,3298
521,00;0,3256
520,00;0,3214
519,00;0,3169
518,00;0,3120
517,00;0,3074
516,00;0,3033
515,00;0,2995
514,00;0,2956
513,00;0,2918
512,00;0,2881
511,00;0,2843
510,00;0,2804
509,00;0,2768
508,00;0,2734
507,00;0,2698
506,00;0,2659
505,00;0,2622
504,00;0,2591
503,00;0,2560
502,00;0,2527
501,00;0,2497
500,00;0,2474
499,00;0,2457
498,00;0,2442
497,00;0,2432
496,00;0,2428
495,00;0,2428
494,00;0,2433
493,00;0,2445
492,00;0,2463
491,00;0,2481
490,00;0,2492
489,00;0,2501
488,00;0,2510
487,00;0,2521
486,00;0,2535
485,00;0,2553
484,00;0,2579
483,00;0,2608
482,00;0,2635
481,00;0,2658
480,00;0,2677
479,00;0,2690
478,00;0,2698
477,00;0,2704
476,00;0,2706
475,00;0,2701
474,00;0,2687
473,00;0,2675
472,00;0,2667
471,00;0,2661
470,00;0,2655
469,00;0,2656
468,00;0,2669
467,00;0,2683
466,00;0,2693
465,00;0,2700
464,00;0,2709
463,00;0,2719
462,00;0,2725
461,00;0,2730
460,00;0,2736
459,00;0,2740
458,00;0,2740
457,00;0,2743
456,00;0,2753
455,00;0,2770
454,00;0,2791
453,00;0,2822
452,00;0,2861
451,00;0,2894
450,00;0,2917
449,00;0,2941
448,00;0,2980
447,00;0,3030
446,00;0,3082
445,00;0,3131
444,00;0,3175
443,00;0,3213
442,00;0,3252
441,00;0,3302
440,00;0,3364
439,00;0,3422
438,00;0,3462
437,00;0,3481
436,00;0,3477
435,00;0,3449
434,00;0,3411
433,00;0,3385
432,00;0,3375
431,00;0,3369
430,00;0,3364
429,00;0,3374
428,00;0,3402
427,00;0,3431
426,00;0,3453
425,00;0,3483
424,00;0,3528
423,00;0,3562
422,00;0,3568
421,00;0,3563
420,00;0,3564
419,00;0,3568
418,00;0,3576
417,00;0,3598
416,00;0,3623
415,00;0,3627
414,00;0,3610
413,00;0,3603
412,00;0,3622
411,00;0,3642
410,00;0,3642
409,00;0,3641
408,00;0,3656
407,00;0,3674
406,00;0,3690
405,00;0,3727
404,00;0,3790
403,00;0,3841
402,00;0,3863
401,00;0,3882
400,00;0,3908
