Создан как новый массив данных;Образец 008 полученный BalashovM Дата пятница, апреля 21 2023
cm-1;A
4000,00;0,0283
3999,00;0,0283
3998,00;0,0283
3997,00;0,0283
3996,00;0,0283
3995,00;0,0283
3994,00;0,0283
3993,00;0,0283
3992,00;0,0283
3991,00;0,0284
3990,00;0,0284
3989,00;0,0284
3988,00;0,0284
3987,00;0,0285
3986,00;0,0285
3985,00;0,0285
3984,00;0,0284
3983,00;0,0284
3982,00;0,0284
3981,00;0,0283
3980,00;0,0283
3979,00;0,0283
3978,00;0,0283
3977,00;0,0284
3976,00;0,0284
3975,00;0,0285
3974,00;0,0285
3973,00;0,0285
3972,00;0,0285
3971,00;0,0285
3970,00;0,0285
3969,00;0,0285
3968,00;0,0285
3967,00;0,0285
3966,00;0,0285
3965,00;0,0284
3964,00;0,0285
3963,00;0,0285
3962,00;0,0285
3961,00;0,0285
3960,00;0,0284
3959,00;0,0284
3958,00;0,0284
3957,00;0,0284
3956,00;0,0284
3955,00;0,0284
3954,00;0,0284
3953,00;0,0284
3952,00;0,0285
3951,00;0,0285
3950,00;0,0285
3949,00;0,0285
3948,00;0,0285
3947,00;0,0285
3946,00;0,0285
3945,00;0,0285
3944,00;0,0285
3943,00;0,0286
3942,00;0,0286
3941,00;0,0286
3940,00;0,0286
3939,00;0,0286
3938,00;0,0286
3937,00;0,0286
3936,00;0,0286
3935,00;0,0285
3934,00;0,0285
3933,00;0,0286
3932,00;0,0286
3931,00;0,0286
3930,00;0,0286
3929,00;0,0286
3928,00;0,0286
3927,00;0,0286
3926,00;0,0286
3925,00;0,0286
3924,00;0,0286
3923,00;0,0286
3922,00;0,0286
3921,00;0,0286
3920,00;0,0286
3919,00;0,0286
3918,00;0,0286
3917,00;0,0286
3916,00;0,0286
3915,00;0,0286
3914,00;0,0286
3913,00;0,0286
3912,00;0,0286
3911,00;0,0287
3910,00;0,0287
3909,00;0,0287
3908,00;0,0286
3907,00;0,0286
3906,00;0,0286
3905,00;0,0287
3904,00;0,0287
3903,00;0,0287
3902,00;0,0286
3901,00;0,0286
3900,00;0,0286
3899,00;0,0286
3898,00;0,0286
3897,00;0,0286
3896,00;0,0286
3895,00;0,0286
3894,00;0,0287
3893,00;0,0287
3892,00;0,0288
3891,00;0,0288
3890,00;0,0288
3889,00;0,0287
3888,00;0,0287
3887,00;0,0287
3886,00;0,0287
3885,00;0,0287
3884,00;0,0287
3883,00;0,0287
3882,00;0,0287
3881,00;0,0287
3880,00;0,0287
3879,00;0,0287
3878,00;0,0287
3877,00;0,0287
3876,00;0,0287
3875,00;0,0287
3874,00;0,0287
3873,00;0,0287
3872,00;0,0287
3871,00;0,0287
3870,00;0,0287
3869,00;0,0287
3868,00;0,0287
3867,00;0,0287
3866,00;0,0287
3865,00;0,0287
3864,00;0,0288
3863,00;0,0287
3862,00;0,0287
3861,00;0,0287
3860,00;0,0288
3859,00;0,0288
3858,00;0,0287
3857,00;0,0287
3856,00;0,0286
3855,00;0,0286
3854,00;0,0286
3853,00;0,0286
3852,00;0,0286
3851,00;0,0286
3850,00;0,0287
3849,00;0,0288
3848,00;0,0288
3847,00;0,0289
3846,00;0,0289
3845,00;0,0289
3844,00;0,0289
3843,00;0,0289
3842,00;0,0289
3841,00;0,0288
3840,00;0,0288
3839,00;0,0288
3838,00;0,0288
3837,00;0,0287
3836,00;0,0287
3835,00;0,0287
3834,00;0,0287
3833,00;0,0287
3832,00;0,0288
3831,00;0,0288
3830,00;0,0289
3829,00;0,0289
3828,00;0,0289
3827,00;0,0289
3826,00;0,0289
3825,00;0,0289
3824,00;0,0288
3823,00;0,0288
3822,00;0,0288
3821,00;0,0288
3820,00;0,0288
3819,00;0,0287
3818,00;0,0287
3817,00;0,0287
3816,00;0,0288
3815,00;0,0288
3814,00;0,0289
3813,00;0,0289
3812,00;0,0289
3811,00;0,0289
3810,00;0,0289
3809,00;0,0289
3808,00;0,0289
3807,00;0,0289
3806,00;0,0289
3805,00;0,0289
3804,00;0,0289
3803,00;0,0288
3802,00;0,0289
3801,00;0,0289
3800,00;0,0290
3799,00;0,0290
3798,00;0,0290
3797,00;0,0290
3796,00;0,0291
3795,00;0,0291
3794,00;0,0291
3793,00;0,0290
3792,00;0,0290
3791,00;0,0291
3790,00;0,0291
3789,00;0,0291
3788,00;0,0292
3787,00;0,0292
3786,00;0,0292
3785,00;0,0292
3784,00;0,0292
3783,00;0,0291
3782,00;0,0291
3781,00;0,0291
3780,00;0,0290
3779,00;0,0291
3778,00;0,0291
3777,00;0,0291
3776,00;0,0291
3775,00;0,0292
3774,00;0,0293
3773,00;0,0293
3772,00;0,0292
3771,00;0,0292
3770,00;0,0292
3769,00;0,0291
3768,00;0,0291
3767,00;0,0292
3766,00;0,0292
3765,00;0,0292
3764,00;0,0292
3763,00;0,0292
3762,00;0,0292
3761,00;0,0292
3760,00;0,0291
3759,00;0,0291
3758,00;0,0291
3757,00;0,0291
3756,00;0,0291
3755,00;0,0291
3754,00;0,0291
3753,00;0,0290
3752,00;0,0290
3751,00;0,0290
3750,00;0,0290
3749,00;0,0289
3748,00;0,0289
3747,00;0,0288
3746,00;0,0288
3745,00;0,0289
3744,00;0,0290
3743,00;0,0290
3742,00;0,0290
3741,00;0,0290
3740,00;0,0291
3739,00;0,0291
3738,00;0,0291
3737,00;0,0291
3736,00;0,0291
3735,00;0,0290
3734,00;0,0290
3733,00;0,0290
3732,00;0,0291
3731,00;0,0291
3730,00;0,0291
3729,00;0,0291
3728,00;0,0291
3727,00;0,0292
3726,00;0,0292
3725,00;0,0293
3724,00;0,0293
3723,00;0,0293
3722,00;0,0292
3721,00;0,0292
3720,00;0,0292
3719,00;0,0292
3718,00;0,0292
3717,00;0,0292
3716,00;0,0292
3715,00;0,0291
3714,00;0,0291
3713,00;0,0290
3712,00;0,0290
3711,00;0,0290
3710,00;0,0290
3709,00;0,0290
3708,00;0,0290
3707,00;0,0291
3706,00;0,0291
3705,00;0,0291
3704,00;0,0291
3703,00;0,0291
3702,00;0,0291
3701,00;0,0291
3700,00;0,0291
3699,00;0,0291
3698,00;0,0291
3697,00;0,0291
3696,00;0,0291
3695,00;0,0291
3694,00;0,0291
3693,00;0,0291
3692,00;0,0291
3691,00;0,0291
3690,00;0,0291
3689,00;0,0291
3688,00;0,0291
3687,00;0,0291
3686,00;0,0291
3685,00;0,0291
3684,00;0,0292
3683,00;0,0292
3682,00;0,0293
3681,00;0,0293
3680,00;0,0293
3679,00;0,0293
3678,00;0,0292
3677,00;0,0292
3676,00;0,0292
3675,00;0,0291
3674,00;0,0291
3673,00;0,0290
3672,00;0,0289
3671,00;0,0290
3670,00;0,0290
3669,00;0,0291
3668,00;0,0291
3667,00;0,0291
3666,00;0,0292
3665,00;0,0292
3664,00;0,0292
3663,00;0,0293
3662,00;0,0293
3661,00;0,0293
3660,00;0,0293
3659,00;0,0293
3658,00;0,0293
3657,00;0,0293
3656,00;0,0293
3655,00;0,0293
3654,00;0,0293
3653,00;0,0292
3652,00;0,0292
3651,00;0,0293
3650,00;0,0292
3649,00;0,0292
3648,00;0,0291
3647,00;0,0291
3646,00;0,0291
3645,00;0,0292
3644,00;0,0292
3643,00;0,0292
3642,00;0,0292
3641,00;0,0292
3640,00;0,0293
3639,00;0,0293
3638,00;0,0293
3637,00;0,0294
3636,00;0,0294
3635,00;0,0294
3634,00;0,0294
3633,00;0,0294
3632,00;0,0294
3631,00;0,0293
3630,00;0,0293
3629,00;0,0293
3628,00;0,0293
3627,00;0,0293
3626,00;0,0293
3625,00;0,0293
3624,00;0,0293
3623,00;0,0293
3622,00;0,0293
3621,00;0,0293
3620,00;0,0294
3619,00;0,0294
3618,00;0,0295
3617,00;0,0295
3616,00;0,0295
3615,00;0,0295
3614,00;0,0294
3613,00;0,0294
3612,00;0,0294
3611,00;0,0294
3610,00;0,0294
3609,00;0,0294
3608,00;0,0294
3607,00;0,0293
3606,00;0,0293
3605,00;0,0294
3604,00;0,0295
3603,00;0,0295
3602,00;0,0296
3601,00;0,0296
3600,00;0,0296
3599,00;0,0296
3598,00;0,0295
3597,00;0,0295
3596,00;0,0296
3595,00;0,0296
3594,00;0,0296
3593,00;0,0295
3592,00;0,0295
3591,00;0,0295
3590,00;0,0295
3589,00;0,0294
3588,00;0,0294
3587,00;0,0294
3586,00;0,0294
3585,00;0,0294
3584,00;0,0294
3583,00;0,0295
3582,00;0,0295
3581,00;0,0296
3580,00;0,0296
3579,00;0,0296
3578,00;0,0296
3577,00;0,0296
3576,00;0,0296
3575,00;0,0296
3574,00;0,0296
3573,00;0,0296
3572,00;0,0296
3571,00;0,0297
3570,00;0,0297
3569,00;0,0297
3568,00;0,0297
3567,00;0,0297
3566,00;0,0296
3565,00;0,0296
3564,00;0,0297
3563,00;0,0297
3562,00;0,0297
3561,00;0,0297
3560,00;0,0297
3559,00;0,0297
3558,00;0,0297
3557,00;0,0297
3556,00;0,0297
3555,00;0,0298
3554,00;0,0298
3553,00;0,0298
3552,00;0,0298
3551,00;0,0298
3550,00;0,0298
3549,00;0,0298
3548,00;0,0298
3547,00;0,0298
3546,00;0,0298
3545,00;0,0298
3544,00;0,0297
3543,00;0,0297
3542,00;0,0297
3541,00;0,0298
3540,00;0,0298
3539,00;0,0298
3538,00;0,0298
3537,00;0,0298
3536,00;0,0298
3535,00;0,0298
3534,00;0,0298
3533,00;0,0299
3532,00;0,0299
3531,00;0,0299
3530,00;0,0299
3529,00;0,0299
3528,00;0,0299
3527,00;0,0299
3526,00;0,0299
3525,00;0,0299
3524,00;0,0299
3523,00;0,0300
3522,00;0,0300
3521,00;0,0300
3520,00;0,0300
3519,00;0,0300
3518,00;0,0299
3517,00;0,0299
3516,00;0,0300
3515,00;0,0300
3514,00;0,0300
3513,00;0,0301
3512,00;0,0301
3511,00;0,0301
3510,00;0,0301
3509,00;0,0301
3508,00;0,0301
3507,00;0,0300
3506,00;0,0300
3505,00;0,0300
3504,00;0,0301
3503,00;0,0301
3502,00;0,0301
3501,00;0,0300
3500,00;0,0301
3499,00;0,0301
3498,00;0,0301
3497,00;0,0301
3496,00;0,0301
3495,00;0,0301
3494,00;0,0301
3493,00;0,0301
3492,00;0,0301
3491,00;0,0301
3490,00;0,0301
3489,00;0,0301
3488,00;0,0301
3487,00;0,0301
3486,00;0,0302
3485,00;0,0302
3484,00;0,0303
3483,00;0,0303
3482,00;0,0303
3481,00;0,0303
3480,00;0,0303
3479,00;0,0302
3478,00;0,0302
3477,00;0,0302
3476,00;0,0302
3475,00;0,0302
3474,00;0,0302
3473,00;0,0302
3472,00;0,0302
3471,00;0,0302
3470,00;0,0302
3469,00;0,0302
3468,00;0,0302
3467,00;0,0302
3466,00;0,0303
3465,00;0,0303
3464,00;0,0303
3463,00;0,0303
3462,00;0,0303
3461,00;0,0303
3460,00;0,0303
3459,00;0,0303
3458,00;0,0303
3457,00;0,0303
3456,00;0,0303
3455,00;0,0303
3454,00;0,0303
3453,00;0,0304
3452,00;0,0304
3451,00;0,0304
3450,00;0,0304
3449,00;0,0304
3448,00;0,0304
3447,00;0,0304
3446,00;0,0304
3445,00;0,0304
3444,00;0,0304
3443,00;0,0304
3442,00;0,0304
3441,00;0,0304
3440,00;0,0304
3439,00;0,0303
3438,00;0,0303
3437,00;0,0303
3436,00;0,0303
3435,00;0,0303
3434,00;0,0303
3433,00;0,0303
3432,00;0,0303
3431,00;0,0303
3430,00;0,0304
3429,00;0,0304
3428,00;0,0304
3427,00;0,0304
3426,00;0,0304
3425,00;0,0304
3424,00;0,0304
3423,00;0,0304
3422,00;0,0304
3421,00;0,0304
3420,00;0,0304
3419,00;0,0304
3418,00;0,0304
3417,00;0,0304
3416,00;0,0304
3415,00;0,0304
3414,00;0,0304
3413,00;0,0304
3412,00;0,0304
3411,00;0,0304
3410,00;0,0304
3409,00;0,0304
3408,00;0,0304
3407,00;0,0304
3406,00;0,0304
3405,00;0,0304
3404,00;0,0304
3403,00;0,0304
3402,00;0,0304
3401,00;0,0303
3400,00;0,0303
3399,00;0,0303
3398,00;0,0304
3397,00;0,0304
3396,00;0,0304
3395,00;0,0304
3394,00;0,0304
3393,00;0,0305
3392,00;0,0305
3391,00;0,0305
3390,00;0,0305
3389,00;0,0305
3388,00;0,0305
3387,00;0,0305
3386,00;0,0305
3385,00;0,0305
3384,00;0,0305
3383,00;0,0306
3382,00;0,0306
3381,00;0,0306
3380,00;0,0306
3379,00;0,0306
3378,00;0,0306
3377,00;0,0306
3376,00;0,0306
3375,00;0,0305
3374,00;0,0305
3373,00;0,0305
3372,00;0,0305
3371,00;0,0305
3370,00;0,0305
3369,00;0,0305
3368,00;0,0305
3367,00;0,0306
3366,00;0,0306
3365,00;0,0307
3364,00;0,0307
3363,00;0,0307
3362,00;0,0307
3361,00;0,0307
3360,00;0,0307
3359,00;0,0307
3358,00;0,0307
3357,00;0,0307
3356,00;0,0307
3355,00;0,0307
3354,00;0,0306
3353,00;0,0306
3352,00;0,0306
3351,00;0,0306
3350,00;0,0306
3349,00;0,0306
3348,00;0,0306
3347,00;0,0306
3346,00;0,0306
3345,00;0,0307
3344,00;0,0307
3343,00;0,0307
3342,00;0,0307
3341,00;0,0307
3340,00;0,0308
3339,00;0,0308
3338,00;0,0308
3337,00;0,0308
3336,00;0,0308
3335,00;0,0308
3334,00;0,0308
3333,00;0,0308
3332,00;0,0309
3331,00;0,0309
3330,00;0,0309
3329,00;0,0309
3328,00;0,0309
3327,00;0,0309
3326,00;0,0309
3325,00;0,0309
3324,00;0,0309
3323,00;0,0310
3322,00;0,0310
3321,00;0,0310
3320,00;0,0310
3319,00;0,0310
3318,00;0,0310
3317,00;0,0310
3316,00;0,0310
3315,00;0,0310
3314,00;0,0311
3313,00;0,0311
3312,00;0,0311
3311,00;0,0310
3310,00;0,0309
3309,00;0,0309
3308,00;0,0309
3307,00;0,0309
3306,00;0,0309
3305,00;0,0310
3304,00;0,0310
3303,00;0,0310
3302,00;0,0311
3301,00;0,0310
3300,00;0,0310
3299,00;0,0310
3298,00;0,0309
3297,00;0,0310
3296,00;0,0310
3295,00;0,0310
3294,00;0,0310
3293,00;0,0310
3292,00;0,0311
3291,00;0,0311
3290,00;0,0311
3289,00;0,0311
3288,00;0,0311
3287,00;0,0311
3286,00;0,0311
3285,00;0,0311
3284,00;0,0311
3283,00;0,0311
3282,00;0,0312
3281,00;0,0312
3280,00;0,0312
3279,00;0,0312
3278,00;0,0312
3277,00;0,0312
3276,00;0,0312
3275,00;0,0311
3274,00;0,0311
3273,00;0,0311
3272,00;0,0311
3271,00;0,0311
3270,00;0,0311
3269,00;0,0312
3268,00;0,0312
3267,00;0,0312
3266,00;0,0313
3265,00;0,0313
3264,00;0,0313
3263,00;0,0313
3262,00;0,0313
3261,00;0,0313
3260,00;0,0313
3259,00;0,0313
3258,00;0,0313
3257,00;0,0313
3256,00;0,0313
3255,00;0,0313
3254,00;0,0313
3253,00;0,0313
3252,00;0,0313
3251,00;0,0313
3250,00;0,0313
3249,00;0,0314
3248,00;0,0314
3247,00;0,0314
3246,00;0,0314
3245,00;0,0314
3244,00;0,0314
3243,00;0,0314
3242,00;0,0314
3241,00;0,0314
3240,00;0,0313
3239,00;0,0313
3238,00;0,0313
3237,00;0,0313
3236,00;0,0313
3235,00;0,0314
3234,00;0,0314
3233,00;0,0314
3232,00;0,0315
3231,00;0,0315
3230,00;0,0314
3229,00;0,0314
3228,00;0,0314
3227,00;0,0313
3226,00;0,0313
3225,00;0,0314
3224,00;0,0314
3223,00;0,0314
3222,00;0,0314
3221,00;0,0315
3220,00;0,0315
3219,00;0,0315
3218,00;0,0315
3217,00;0,0314
3216,00;0,0314
3215,00;0,0314
3214,00;0,0315
3213,00;0,0315
3212,00;0,0315
3211,00;0,0315
3210,00;0,0315
3209,00;0,0315
3208,00;0,0316
3207,00;0,0316
3206,00;0,0316
3205,00;0,0316
3204,00;0,0316
3203,00;0,0315
3202,00;0,0315
3201,00;0,0315
3200,00;0,0315
3199,00;0,0315
3198,00;0,0315
3197,00;0,0315
3196,00;0,0315
3195,00;0,0315
3194,00;0,0316
3193,00;0,0316
3192,00;0,0316
3191,00;0,0316
3190,00;0,0317
3189,00;0,0317
3188,00;0,0317
3187,00;0,0317
3186,00;0,0317
3185,00;0,0317
3184,00;0,0317
3183,00;0,0317
3182,00;0,0317
3181,00;0,0317
3180,00;0,0317
3179,00;0,0317
3178,00;0,0317
3177,00;0,0317
3176,00;0,0317
3175,00;0,0317
3174,00;0,0318
3173,00;0,0318
3172,00;0,0318
3171,00;0,0318
3170,00;0,0318
3169,00;0,0317
3168,00;0,0317
3167,00;0,0317
3166,00;0,0318
3165,00;0,0318
3164,00;0,0318
3163,00;0,0318
3162,00;0,0318
3161,00;0,0318
3160,00;0,0318
3159,00;0,0318
3158,00;0,0317
3157,00;0,0317
3156,00;0,0317
3155,00;0,0317
3154,00;0,0317
3153,00;0,0317
3152,00;0,0318
3151,00;0,0318
3150,00;0,0319
3149,00;0,0319
3148,00;0,0319
3147,00;0,0318
3146,00;0,0318
3145,00;0,0318
3144,00;0,0318
3143,00;0,0318
3142,00;0,0318
3141,00;0,0318
3140,00;0,0318
3139,00;0,0318
3138,00;0,0319
3137,00;0,0319
3136,00;0,0319
3135,00;0,0319
3134,00;0,0320
3133,00;0,0320
3132,00;0,0320
3131,00;0,0320
3130,00;0,0320
3129,00;0,0320
3128,00;0,0321
3127,00;0,0321
3126,00;0,0321
3125,00;0,0321
3124,00;0,0320
3123,00;0,0320
3122,00;0,0319
3121,00;0,0319
3120,00;0,0319
3119,00;0,0319
3118,00;0,0320
3117,00;0,0320
3116,00;0,0320
3115,00;0,0321
3114,00;0,0321
3113,00;0,0321
3112,00;0,0321
3111,00;0,0321
3110,00;0,0320
3109,00;0,0320
3108,00;0,0321
3107,00;0,0321
3106,00;0,0322
3105,00;0,0322
3104,00;0,0322
3103,00;0,0322
3102,00;0,0322
3101,00;0,0322
3100,00;0,0322
3099,00;0,0323
3098,00;0,0323
3097,00;0,0323
3096,00;0,0323
3095,00;0,0323
3094,00;0,0323
3093,00;0,0323
3092,00;0,0323
3091,00;0,0323
3090,00;0,0323
3089,00;0,0323
3088,00;0,0322
3087,00;0,0322
3086,00;0,0322
3085,00;0,0322
3084,00;0,0323
3083,00;0,0323
3082,00;0,0323
3081,00;0,0324
3080,00;0,0324
3079,00;0,0324
3078,00;0,0324
3077,00;0,0325
3076,00;0,0325
3075,00;0,0325
3074,00;0,0325
3073,00;0,0325
3072,00;0,0325
3071,00;0,0325
3070,00;0,0325
3069,00;0,0325
3068,00;0,0325
3067,00;0,0325
3066,00;0,0325
3065,00;0,0325
3064,00;0,0325
3063,00;0,0325
3062,00;0,0326
3061,00;0,0326
3060,00;0,0326
3059,00;0,0326
3058,00;0,0325
3057,00;0,0325
3056,00;0,0326
3055,00;0,0326
3054,00;0,0327
3053,00;0,0327
3052,00;0,0327
3051,00;0,0327
3050,00;0,0327
3049,00;0,0327
3048,00;0,0326
3047,00;0,0326
3046,00;0,0327
3045,00;0,0327
3044,00;0,0327
3043,00;0,0328
3042,00;0,0328
3041,00;0,0328
3040,00;0,0329
3039,00;0,0329
3038,00;0,0329
3037,00;0,0329
3036,00;0,0329
3035,00;0,0329
3034,00;0,0330
3033,00;0,0330
3032,00;0,0331
3031,00;0,0332
3030,00;0,0332
3029,00;0,0332
3028,00;0,0332
3027,00;0,0332
3026,00;0,0332
3025,00;0,0332
3024,00;0,0333
3023,00;0,0333
3022,00;0,0333
3021,00;0,0333
3020,00;0,0333
3019,00;0,0333
3018,00;0,0333
3017,00;0,0332
3016,00;0,0332
3015,00;0,0332
3014,00;0,0332
3013,00;0,0332
3012,00;0,0332
3011,00;0,0332
3010,00;0,0333
3009,00;0,0333
3008,00;0,0333
3007,00;0,0333
3006,00;0,0332
3005,00;0,0332
3004,00;0,0332
3003,00;0,0332
3002,00;0,0333
3001,00;0,0332
3000,00;0,0332
2999,00;0,0332
2998,00;0,0332
2997,00;0,0332
2996,00;0,0332
2995,00;0,0331
2994,00;0,0330
2993,00;0,0330
2992,00;0,0330
2991,00;0,0330
2990,00;0,0330
2989,00;0,0330
2988,00;0,0330
2987,00;0,0330
2986,00;0,0329
2985,00;0,0329
2984,00;0,0328
2983,00;0,0328
2982,00;0,0328
2981,00;0,0328
2980,00;0,0328
2979,00;0,0328
2978,00;0,0328
2977,00;0,0328
2976,00;0,0328
2975,00;0,0329
2974,00;0,0330
2973,00;0,0331
2972,00;0,0332
2971,00;0,0332
2970,00;0,0331
2969,00;0,0329
2968,00;0,0327
2967,00;0,0325
2966,00;0,0323
2965,00;0,0322
2964,00;0,0321
2963,00;0,0321
2962,00;0,0321
2961,00;0,0320
2960,00;0,0320
2959,00;0,0319
2958,00;0,0319
2957,00;0,0319
2956,00;0,0319
2955,00;0,0319
2954,00;0,0319
2953,00;0,0319
2952,00;0,0319
2951,00;0,0320
2950,00;0,0320
2949,00;0,0320
2948,00;0,0320
2947,00;0,0319
2946,00;0,0319
2945,00;0,0318
2944,00;0,0317
2943,00;0,0316
2942,00;0,0315
2941,00;0,0314
2940,00;0,0312
2939,00;0,0311
2938,00;0,0309
2937,00;0,0307
2936,00;0,0306
2935,00;0,0304
2934,00;0,0302
2933,00;0,0300
2932,00;0,0299
2931,00;0,0297
2930,00;0,0295
2929,00;0,0294
2928,00;0,0293
2927,00;0,0292
2926,00;0,0292
2925,00;0,0292
2924,00;0,0292
2923,00;0,0292
2922,00;0,0293
2921,00;0,0295
2920,00;0,0296
2919,00;0,0298
2918,00;0,0300
2917,00;0,0302
2916,00;0,0304
2915,00;0,0306
2914,00;0,0307
2913,00;0,0309
2912,00;0,0310
2911,00;0,0312
2910,00;0,0313
2909,00;0,0314
2908,00;0,0316
2907,00;0,0317
2906,00;0,0318
2905,00;0,0318
2904,00;0,0319
2903,00;0,0319
2902,00;0,0319
2901,00;0,0320
2900,00;0,0320
2899,00;0,0321
2898,00;0,0321
2897,00;0,0321
2896,00;0,0322
2895,00;0,0322
2894,00;0,0323
2893,00;0,0323
2892,00;0,0324
2891,00;0,0325
2890,00;0,0325
2889,00;0,0326
2888,00;0,0326
2887,00;0,0326
2886,00;0,0326
2885,00;0,0326
2884,00;0,0327
2883,00;0,0327
2882,00;0,0327
2881,00;0,0327
2880,00;0,0327
2879,00;0,0327
2878,00;0,0327
2877,00;0,0326
2876,00;0,0326
2875,00;0,0325
2874,00;0,0324
2873,00;0,0324
2872,00;0,0324
2871,00;0,0325
2870,00;0,0325
2869,00;0,0325
2868,00;0,0325
2867,00;0,0325
2866,00;0,0324
2865,00;0,0324
2864,00;0,0323
2863,00;0,0321
2862,00;0,0320
2861,00;0,0319
2860,00;0,0317
2859,00;0,0316
2858,00;0,0315
2857,00;0,0314
2856,00;0,0313
2855,00;0,0313
2854,00;0,0313
2853,00;0,0313
2852,00;0,0314
2851,00;0,0316
2850,00;0,0318
2849,00;0,0319
2848,00;0,0321
2847,00;0,0324
2846,00;0,0326
2845,00;0,0328
2844,00;0,0329
2843,00;0,0331
2842,00;0,0332
2841,00;0,0332
2840,00;0,0333
2839,00;0,0333
2838,00;0,0334
2837,00;0,0335
2836,00;0,0336
2835,00;0,0336
2834,00;0,0336
2833,00;0,0336
2832,00;0,0336
2831,00;0,0337
2830,00;0,0337
2829,00;0,0337
2828,00;0,0337
2827,00;0,0337
2826,00;0,0337
2825,00;0,0337
2824,00;0,0337
2823,00;0,0338
2822,00;0,0338
2821,00;0,0338
2820,00;0,0339
2819,00;0,0339
2818,00;0,0340
2817,00;0,0340
2816,00;0,0340
2815,00;0,0340
2814,00;0,0340
2813,00;0,0340
2812,00;0,0340
2811,00;0,0340
2810,00;0,0340
2809,00;0,0340
2808,00;0,0340
2807,00;0,0340
2806,00;0,0340
2805,00;0,0341
2804,00;0,0341
2803,00;0,0341
2802,00;0,0340
2801,00;0,0340
2800,00;0,0340
2799,00;0,0340
2798,00;0,0340
2797,00;0,0341
2796,00;0,0341
2795,00;0,0341
2794,00;0,0341
2793,00;0,0341
2792,00;0,0340
2791,00;0,0340
2790,00;0,0340
2789,00;0,0341
2788,00;0,0341
2787,00;0,0342
2786,00;0,0342
2785,00;0,0342
2784,00;0,0342
2783,00;0,0342
2782,00;0,0342
2781,00;0,0342
2780,00;0,0342
2779,00;0,0342
2778,00;0,0342
2777,00;0,0342
2776,00;0,0342
2775,00;0,0342
2774,00;0,0342
2773,00;0,0342
2772,00;0,0342
2771,00;0,0342
2770,00;0,0342
2769,00;0,0343
2768,00;0,0343
2767,00;0,0343
2766,00;0,0343
2765,00;0,0343
2764,00;0,0343
2763,00;0,0343
2762,00;0,0343
2761,00;0,0343
2760,00;0,0343
2759,00;0,0343
2758,00;0,0343
2757,00;0,0343
2756,00;0,0343
2755,00;0,0343
2754,00;0,0343
2753,00;0,0344
2752,00;0,0344
2751,00;0,0344
2750,00;0,0344
2749,00;0,0344
2748,00;0,0344
2747,00;0,0344
2746,00;0,0344
2745,00;0,0344
2744,00;0,0344
2743,00;0,0344
2742,00;0,0344
2741,00;0,0344
2740,00;0,0344
2739,00;0,0344
2738,00;0,0344
2737,00;0,0344
2736,00;0,0345
2735,00;0,0345
2734,00;0,0344
2733,00;0,0344
2732,00;0,0344
2731,00;0,0345
2730,00;0,0345
2729,00;0,0345
2728,00;0,0345
2727,00;0,0345
2726,00;0,0345
2725,00;0,0345
2724,00;0,0345
2723,00;0,0345
2722,00;0,0345
2721,00;0,0345
2720,00;0,0345
2719,00;0,0345
2718,00;0,0345
2717,00;0,0345
2716,00;0,0346
2715,00;0,0346
2714,00;0,0346
2713,00;0,0346
2712,00;0,0346
2711,00;0,0346
2710,00;0,0346
2709,00;0,0346
2708,00;0,0346
2707,00;0,0346
2706,00;0,0346
2705,00;0,0346
2704,00;0,0346
2703,00;0,0346
2702,00;0,0346
2701,00;0,0347
2700,00;0,0347
2699,00;0,0347
2698,00;0,0347
2697,00;0,0347
2696,00;0,0347
2695,00;0,0347
2694,00;0,0347
2693,00;0,0347
2692,00;0,0347
2691,00;0,0347
2690,00;0,0347
2689,00;0,0347
2688,00;0,0347
2687,00;0,0347
2686,00;0,0347
2685,00;0,0347
2684,00;0,0347
2683,00;0,0347
2682,00;0,0347
2681,00;0,0347
2680,00;0,0348
2679,00;0,0348
2678,00;0,0348
2677,00;0,0348
2676,00;0,0349
2675,00;0,0349
2674,00;0,0349
2673,00;0,0349
2672,00;0,0349
2671,00;0,0349
2670,00;0,0349
2669,00;0,0349
2668,00;0,0350
2667,00;0,0350
2666,00;0,0350
2665,00;0,0350
2664,00;0,0351
2663,00;0,0351
2662,00;0,0352
2661,00;0,0352
2660,00;0,0353
2659,00;0,0353
2658,00;0,0354
2657,00;0,0354
2656,00;0,0354
2655,00;0,0355
2654,00;0,0355
2653,00;0,0354
2652,00;0,0354
2651,00;0,0354
2650,00;0,0354
2649,00;0,0354
2648,00;0,0354
2647,00;0,0354
2646,00;0,0353
2645,00;0,0353
2644,00;0,0353
2643,00;0,0353
2642,00;0,0353
2641,00;0,0353
2640,00;0,0353
2639,00;0,0353
2638,00;0,0353
2637,00;0,0353
2636,00;0,0352
2635,00;0,0352
2634,00;0,0352
2633,00;0,0352
2632,00;0,0352
2631,00;0,0352
2630,00;0,0352
2629,00;0,0352
2628,00;0,0352
2627,00;0,0353
2626,00;0,0352
2625,00;0,0352
2624,00;0,0352
2623,00;0,0352
2622,00;0,0352
2621,00;0,0352
2620,00;0,0352
2619,00;0,0352
2618,00;0,0352
2617,00;0,0352
2616,00;0,0352
2615,00;0,0352
2614,00;0,0352
2613,00;0,0352
2612,00;0,0351
2611,00;0,0351
2610,00;0,0351
2609,00;0,0352
2608,00;0,0352
2607,00;0,0352
2606,00;0,0352
2605,00;0,0351
2604,00;0,0351
2603,00;0,0351
2602,00;0,0351
2601,00;0,0350
2600,00;0,0350
2599,00;0,0351
2598,00;0,0350
2597,00;0,0350
2596,00;0,0350
2595,00;0,0351
2594,00;0,0351
2593,00;0,0352
2592,00;0,0352
2591,00;0,0352
2590,00;0,0351
2589,00;0,0351
2588,00;0,0351
2587,00;0,0351
2586,00;0,0351
2585,00;0,0351
2584,00;0,0351
2583,00;0,0351
2582,00;0,0351
2581,00;0,0350
2580,00;0,0350
2579,00;0,0350
2578,00;0,0350
2577,00;0,0350
2576,00;0,0350
2575,00;0,0350
2574,00;0,0350
2573,00;0,0349
2572,00;0,0349
2571,00;0,0349
2570,00;0,0350
2569,00;0,0350
2568,00;0,0351
2567,00;0,0351
2566,00;0,0351
2565,00;0,0351
2564,00;0,0351
2563,00;0,0351
2562,00;0,0351
2561,00;0,0350
2560,00;0,0350
2559,00;0,0350
2558,00;0,0350
2557,00;0,0350
2556,00;0,0350
2555,00;0,0350
2554,00;0,0350
2553,00;0,0350
2552,00;0,0350
2551,00;0,0350
2550,00;0,0349
2549,00;0,0349
2548,00;0,0350
2547,00;0,0350
2546,00;0,0351
2545,00;0,0351
2544,00;0,0352
2543,00;0,0352
2542,00;0,0352
2541,00;0,0352
2540,00;0,0352
2539,00;0,0352
2538,00;0,0352
2537,00;0,0351
2536,00;0,0350
2535,00;0,0350
2534,00;0,0350
2533,00;0,0350
2532,00;0,0350
2531,00;0,0350
2530,00;0,0351
2529,00;0,0351
2528,00;0,0351
2527,00;0,0351
2526,00;0,0352
2525,00;0,0352
2524,00;0,0352
2523,00;0,0352
2522,00;0,0352
2521,00;0,0352
2520,00;0,0352
2519,00;0,0352
2518,00;0,0351
2517,00;0,0351
2516,00;0,0351
2515,00;0,0351
2514,00;0,0352
2513,00;0,0352
2512,00;0,0352
2511,00;0,0352
2510,00;0,0352
2509,00;0,0352
2508,00;0,0353
2507,00;0,0353
2506,00;0,0353
2505,00;0,0353
2504,00;0,0353
2503,00;0,0352
2502,00;0,0352
2501,00;0,0352
2500,00;0,0353
2499,00;0,0353
2498,00;0,0353
2497,00;0,0353
2496,00;0,0353
2495,00;0,0353
2494,00;0,0353
2493,00;0,0353
2492,00;0,0353
2491,00;0,0353
2490,00;0,0354
2489,00;0,0354
2488,00;0,0354
2487,00;0,0354
2486,00;0,0354
2485,00;0,0353
2484,00;0,0353
2483,00;0,0353
2482,00;0,0353
2481,00;0,0354
2480,00;0,0354
2479,00;0,0355
2478,00;0,0354
2477,00;0,0354
2476,00;0,0354
2475,00;0,0354
2474,00;0,0354
2473,00;0,0354
2472,00;0,0354
2471,00;0,0354
2470,00;0,0355
2469,00;0,0355
2468,00;0,0355
2467,00;0,0355
2466,00;0,0355
2465,00;0,0355
2464,00;0,0355
2463,00;0,0355
2462,00;0,0355
2461,00;0,0356
2460,00;0,0356
2459,00;0,0357
2458,00;0,0358
2457,00;0,0358
2456,00;0,0358
2455,00;0,0358
2454,00;0,0358
2453,00;0,0358
2452,00;0,0358
2451,00;0,0357
2450,00;0,0357
2449,00;0,0357
2448,00;0,0357
2447,00;0,0357
2446,00;0,0357
2445,00;0,0357
2444,00;0,0356
2443,00;0,0356
2442,00;0,0356
2441,00;0,0356
2440,00;0,0356
2439,00;0,0357
2438,00;0,0357
2437,00;0,0357
2436,00;0,0357
2435,00;0,0357
2434,00;0,0357
2433,00;0,0358
2432,00;0,0358
2431,00;0,0358
2430,00;0,0358
2429,00;0,0357
2428,00;0,0356
2427,00;0,0356
2426,00;0,0356
2425,00;0,0356
2424,00;0,0356
2423,00;0,0356
2422,00;0,0356
2421,00;0,0356
2420,00;0,0356
2419,00;0,0355
2418,00;0,0355
2417,00;0,0355
2416,00;0,0356
2415,00;0,0356
2414,00;0,0357
2413,00;0,0358
2412,00;0,0358
2411,00;0,0358
2410,00;0,0358
2409,00;0,0358
2408,00;0,0357
2407,00;0,0357
2406,00;0,0356
2405,00;0,0356
2404,00;0,0355
2403,00;0,0355
2402,00;0,0356
2401,00;0,0356
2400,00;0,0356
2399,00;0,0356
2398,00;0,0357
2397,00;0,0357
2396,00;0,0357
2395,00;0,0357
2394,00;0,0357
2393,00;0,0357
2392,00;0,0357
2391,00;0,0357
2390,00;0,0357
2389,00;0,0356
2388,00;0,0356
2387,00;0,0356
2386,00;0,0356
2385,00;0,0356
2384,00;0,0356
2383,00;0,0356
2382,00;0,0355
2381,00;0,0355
2380,00;0,0354
2379,00;0,0354
2378,00;0,0355
2377,00;0,0355
2376,00;0,0355
2375,00;0,0356
2374,00;0,0356
2373,00;0,0356
2372,00;0,0356
2371,00;0,0356
2370,00;0,0356
2369,00;0,0356
2368,00;0,0356
2367,00;0,0357
2366,00;0,0357
2365,00;0,0358
2364,00;0,0358
2363,00;0,0358
2362,00;0,0358
2361,00;0,0358
2360,00;0,0357
2359,00;0,0357
2358,00;0,0358
2357,00;0,0358
2356,00;0,0359
2355,00;0,0360
2354,00;0,0360
2353,00;0,0359
2352,00;0,0359
2351,00;0,0360
2350,00;0,0360
2349,00;0,0361
2348,00;0,0361
2347,00;0,0361
2346,00;0,0362
2345,00;0,0362
2344,00;0,0363
2343,00;0,0363
2342,00;0,0364
2341,00;0,0364
2340,00;0,0364
2339,00;0,0364
2338,00;0,0364
2337,00;0,0363
2336,00;0,0363
2335,00;0,0363
2334,00;0,0363
2333,00;0,0363
2332,00;0,0364
2331,00;0,0365
2330,00;0,0366
2329,00;0,0367
2328,00;0,0369
2327,00;0,0372
2326,00;0,0376
2325,00;0,0378
2324,00;0,0380
2323,00;0,0379
2322,00;0,0378
2321,00;0,0376
2320,00;0,0375
2319,00;0,0374
2318,00;0,0374
2317,00;0,0374
2316,00;0,0374
2315,00;0,0373
2314,00;0,0373
2313,00;0,0372
2312,00;0,0372
2311,00;0,0372
2310,00;0,0372
2309,00;0,0372
2308,00;0,0372
2307,00;0,0372
2306,00;0,0372
2305,00;0,0372
2304,00;0,0372
2303,00;0,0373
2302,00;0,0373
2301,00;0,0374
2300,00;0,0374
2299,00;0,0374
2298,00;0,0374
2297,00;0,0375
2296,00;0,0375
2295,00;0,0375
2294,00;0,0376
2293,00;0,0377
2292,00;0,0378
2291,00;0,0379
2290,00;0,0380
2289,00;0,0381
2288,00;0,0382
2287,00;0,0382
2286,00;0,0382
2285,00;0,0381
2284,00;0,0380
2283,00;0,0378
2282,00;0,0378
2281,00;0,0377
2280,00;0,0377
2279,00;0,0376
2278,00;0,0376
2277,00;0,0376
2276,00;0,0376
2275,00;0,0375
2274,00;0,0374
2273,00;0,0373
2272,00;0,0373
2271,00;0,0373
2270,00;0,0374
2269,00;0,0375
2268,00;0,0376
2267,00;0,0375
2266,00;0,0374
2265,00;0,0375
2264,00;0,0375
2263,00;0,0376
2262,00;0,0377
2261,00;0,0377
2260,00;0,0378
2259,00;0,0378
2258,00;0,0379
2257,00;0,0379
2256,00;0,0377
2255,00;0,0375
2254,00;0,0373
2253,00;0,0372
2252,00;0,0372
2251,00;0,0371
2250,00;0,0371
2249,00;0,0371
2248,00;0,0372
2247,00;0,0373
2246,00;0,0374
2245,00;0,0374
2244,00;0,0374
2243,00;0,0375
2242,00;0,0376
2241,00;0,0376
2240,00;0,0376
2239,00;0,0375
2238,00;0,0374
2237,00;0,0374
2236,00;0,0374
2235,00;0,0375
2234,00;0,0376
2233,00;0,0377
2232,00;0,0377
2231,00;0,0377
2230,00;0,0376
2229,00;0,0375
2228,00;0,0374
2227,00;0,0374
2226,00;0,0374
2225,00;0,0374
2224,00;0,0373
2223,00;0,0373
2222,00;0,0373
2221,00;0,0374
2220,00;0,0374
2219,00;0,0375
2218,00;0,0376
2217,00;0,0377
2216,00;0,0377
2215,00;0,0377
2214,00;0,0379
2213,00;0,0380
2212,00;0,0381
2211,00;0,0379
2210,00;0,0376
2209,00;0,0373
2208,00;0,0372
2207,00;0,0372
2206,00;0,0373
2205,00;0,0374
2204,00;0,0375
2203,00;0,0375
2202,00;0,0375
2201,00;0,0376
2200,00;0,0378
2199,00;0,0379
2198,00;0,0379
2197,00;0,0378
2196,00;0,0376
2195,00;0,0375
2194,00;0,0375
2193,00;0,0376
2192,00;0,0378
2191,00;0,0379
2190,00;0,0379
2189,00;0,0379
2188,00;0,0379
2187,00;0,0379
2186,00;0,0380
2185,00;0,0379
2184,00;0,0378
2183,00;0,0375
2182,00;0,0372
2181,00;0,0370
2180,00;0,0371
2179,00;0,0373
2178,00;0,0375
2177,00;0,0376
2176,00;0,0375
2175,00;0,0374
2174,00;0,0374
2173,00;0,0375
2172,00;0,0377
2171,00;0,0380
2170,00;0,0384
2169,00;0,0387
2168,00;0,0388
2167,00;0,0387
2166,00;0,0385
2165,00;0,0383
2164,00;0,0383
2163,00;0,0386
2162,00;0,0388
2161,00;0,0386
2160,00;0,0378
2159,00;0,0364
2158,00;0,0352
2157,00;0,0345
2156,00;0,0343
2155,00;0,0344
2154,00;0,0346
2153,00;0,0349
2152,00;0,0354
2151,00;0,0358
2150,00;0,0361
2149,00;0,0363
2148,00;0,0364
2147,00;0,0364
2146,00;0,0366
2145,00;0,0368
2144,00;0,0370
2143,00;0,0371
2142,00;0,0369
2141,00;0,0367
2140,00;0,0366
2139,00;0,0367
2138,00;0,0368
2137,00;0,0368
2136,00;0,0366
2135,00;0,0364
2134,00;0,0360
2133,00;0,0358
2132,00;0,0358
2131,00;0,0360
2130,00;0,0362
2129,00;0,0365
2128,00;0,0367
2127,00;0,0368
2126,00;0,0369
2125,00;0,0370
2124,00;0,0371
2123,00;0,0372
2122,00;0,0373
2121,00;0,0373
2120,00;0,0373
2119,00;0,0373
2118,00;0,0374
2117,00;0,0375
2116,00;0,0377
2115,00;0,0378
2114,00;0,0380
2113,00;0,0381
2112,00;0,0381
2111,00;0,0380
2110,00;0,0379
2109,00;0,0379
2108,00;0,0379
2107,00;0,0381
2106,00;0,0382
2105,00;0,0382
2104,00;0,0381
2103,00;0,0381
2102,00;0,0381
2101,00;0,0381
2100,00;0,0381
2099,00;0,0382
2098,00;0,0381
2097,00;0,0380
2096,00;0,0379
2095,00;0,0378
2094,00;0,0377
2093,00;0,0376
2092,00;0,0376
2091,00;0,0377
2090,00;0,0378
2089,00;0,0380
2088,00;0,0382
2087,00;0,0384
2086,00;0,0385
2085,00;0,0386
2084,00;0,0385
2083,00;0,0385
2082,00;0,0385
2081,00;0,0384
2080,00;0,0384
2079,00;0,0384
2078,00;0,0384
2077,00;0,0384
2076,00;0,0384
2075,00;0,0384
2074,00;0,0384
2073,00;0,0384
2072,00;0,0386
2071,00;0,0387
2070,00;0,0388
2069,00;0,0389
2068,00;0,0388
2067,00;0,0386
2066,00;0,0385
2065,00;0,0384
2064,00;0,0384
2063,00;0,0384
2062,00;0,0385
2061,00;0,0386
2060,00;0,0387
2059,00;0,0390
2058,00;0,0391
2057,00;0,0392
2056,00;0,0391
2055,00;0,0390
2054,00;0,0391
2053,00;0,0393
2052,00;0,0396
2051,00;0,0399
2050,00;0,0399
2049,00;0,0397
2048,00;0,0395
2047,00;0,0393
2046,00;0,0393
2045,00;0,0393
2044,00;0,0395
2043,00;0,0396
2042,00;0,0397
2041,00;0,0395
2040,00;0,0393
2039,00;0,0392
2038,00;0,0391
2037,00;0,0391
2036,00;0,0390
2035,00;0,0389
2034,00;0,0385
2033,00;0,0378
2032,00;0,0373
2031,00;0,0370
2030,00;0,0371
2029,00;0,0374
2028,00;0,0378
2027,00;0,0380
2026,00;0,0382
2025,00;0,0384
2024,00;0,0386
2023,00;0,0388
2022,00;0,0388
2021,00;0,0387
2020,00;0,0387
2019,00;0,0388
2018,00;0,0388
2017,00;0,0388
2016,00;0,0387
2015,00;0,0386
2014,00;0,0385
2013,00;0,0383
2012,00;0,0382
2011,00;0,0382
2010,00;0,0382
2009,00;0,0383
2008,00;0,0383
2007,00;0,0382
2006,00;0,0381
2005,00;0,0382
2004,00;0,0383
2003,00;0,0383
2002,00;0,0381
2001,00;0,0377
2000,00;0,0375
1999,00;0,0375
1998,00;0,0378
1997,00;0,0383
1996,00;0,0387
1995,00;0,0390
1994,00;0,0392
1993,00;0,0393
1992,00;0,0394
1991,00;0,0393
1990,00;0,0391
1989,00;0,0389
1988,00;0,0389
1987,00;0,0390
1986,00;0,0393
1985,00;0,0396
1984,00;0,0397
1983,00;0,0399
1982,00;0,0402
1981,00;0,0405
1980,00;0,0407
1979,00;0,0406
1978,00;0,0401
1977,00;0,0394
1976,00;0,0388
1975,00;0,0384
1974,00;0,0382
1973,00;0,0381
1972,00;0,0381
1971,00;0,0382
1970,00;0,0382
1969,00;0,0381
1968,00;0,0378
1967,00;0,0376
1966,00;0,0376
1965,00;0,0378
1964,00;0,0380
1963,00;0,0382
1962,00;0,0383
1961,00;0,0382
1960,00;0,0381
1959,00;0,0379
1958,00;0,0378
1957,00;0,0377
1956,00;0,0378
1955,00;0,0379
1954,00;0,0382
1953,00;0,0384
1952,00;0,0385
1951,00;0,0384
1950,00;0,0383
1949,00;0,0383
1948,00;0,0383
1947,00;0,0384
1946,00;0,0384
1945,00;0,0384
1944,00;0,0383
1943,00;0,0382
1942,00;0,0381
1941,00;0,0381
1940,00;0,0382
1939,00;0,0384
1938,00;0,0386
1937,00;0,0387
1936,00;0,0388
1935,00;0,0388
1934,00;0,0389
1933,00;0,0388
1932,00;0,0387
1931,00;0,0385
1930,00;0,0384
1929,00;0,0384
1928,00;0,0386
1927,00;0,0388
1926,00;0,0390
1925,00;0,0390
1924,00;0,0390
1923,00;0,0390
1922,00;0,0391
1921,00;0,0392
1920,00;0,0392
1919,00;0,0392
1918,00;0,0391
1917,00;0,0390
1916,00;0,0388
1915,00;0,0388
1914,00;0,0389
1913,00;0,0391
1912,00;0,0393
1911,00;0,0395
1910,00;0,0395
1909,00;0,0395
1908,00;0,0394
1907,00;0,0394
1906,00;0,0394
1905,00;0,0394
1904,00;0,0395
1903,00;0,0395
1902,00;0,0395
1901,00;0,0395
1900,00;0,0396
1899,00;0,0396
1898,00;0,0396
1897,00;0,0396
1896,00;0,0396
1895,00;0,0395
1894,00;0,0394
1893,00;0,0394
1892,00;0,0394
1891,00;0,0395
1890,00;0,0396
1889,00;0,0397
1888,00;0,0397
1887,00;0,0396
1886,00;0,0396
1885,00;0,0395
1884,00;0,0396
1883,00;0,0396
1882,00;0,0397
1881,00;0,0398
1880,00;0,0399
1879,00;0,0399
1878,00;0,0399
1877,00;0,0400
1876,00;0,0400
1875,00;0,0399
1874,00;0,0399
1873,00;0,0398
1872,00;0,0398
1871,00;0,0398
1870,00;0,0398
1869,00;0,0398
1868,00;0,0398
1867,00;0,0398
1866,00;0,0398
1865,00;0,0398
1864,00;0,0399
1863,00;0,0399
1862,00;0,0399
1861,00;0,0399
1860,00;0,0400
1859,00;0,0401
1858,00;0,0401
1857,00;0,0401
1856,00;0,0401
1855,00;0,0401
1854,00;0,0401
1853,00;0,0402
1852,00;0,0402
1851,00;0,0403
1850,00;0,0403
1849,00;0,0404
1848,00;0,0404
1847,00;0,0404
1846,00;0,0404
1845,00;0,0404
1844,00;0,0404
1843,00;0,0404
1842,00;0,0404
1841,00;0,0403
1840,00;0,0403
1839,00;0,0403
1838,00;0,0403
1837,00;0,0403
1836,00;0,0403
1835,00;0,0404
1834,00;0,0404
1833,00;0,0405
1832,00;0,0405
1831,00;0,0406
1830,00;0,0407
1829,00;0,0407
1828,00;0,0407
1827,00;0,0406
1826,00;0,0406
1825,00;0,0406
1824,00;0,0406
1823,00;0,0406
1822,00;0,0407
1821,00;0,0407
1820,00;0,0406
1819,00;0,0406
1818,00;0,0405
1817,00;0,0405
1816,00;0,0405
1815,00;0,0406
1814,00;0,0407
1813,00;0,0408
1812,00;0,0408
1811,00;0,0409
1810,00;0,0410
1809,00;0,0410
1808,00;0,0410
1807,00;0,0411
1806,00;0,0412
1805,00;0,0413
1804,00;0,0413
1803,00;0,0413
1802,00;0,0413
1801,00;0,0414
1800,00;0,0414
1799,00;0,0415
1798,00;0,0416
1797,00;0,0417
1796,00;0,0417
1795,00;0,0417
1794,00;0,0417
1793,00;0,0417
1792,00;0,0418
1791,00;0,0419
1790,00;0,0420
1789,00;0,0420
1788,00;0,0420
1787,00;0,0421
1786,00;0,0421
1785,00;0,0421
1784,00;0,0421
1783,00;0,0421
1782,00;0,0422
1781,00;0,0422
1780,00;0,0423
1779,00;0,0424
1778,00;0,0424
1777,00;0,0425
1776,00;0,0426
1775,00;0,0427
1774,00;0,0428
1773,00;0,0429
1772,00;0,0431
1771,00;0,0433
1770,00;0,0434
1769,00;0,0436
1768,00;0,0438
1767,00;0,0440
1766,00;0,0442
1765,00;0,0444
1764,00;0,0445
1763,00;0,0447
1762,00;0,0449
1761,00;0,0450
1760,00;0,0451
1759,00;0,0452
1758,00;0,0453
1757,00;0,0455
1756,00;0,0457
1755,00;0,0458
1754,00;0,0459
1753,00;0,0460
1752,00;0,0461
1751,00;0,0461
1750,00;0,0461
1749,00;0,0462
1748,00;0,0462
1747,00;0,0464
1746,00;0,0465
1745,00;0,0467
1744,00;0,0468
1743,00;0,0469
1742,00;0,0471
1741,00;0,0472
1740,00;0,0473
1739,00;0,0474
1738,00;0,0474
1737,00;0,0474
1736,00;0,0472
1735,00;0,0470
1734,00;0,0466
1733,00;0,0463
1732,00;0,0461
1731,00;0,0461
1730,00;0,0461
1729,00;0,0461
1728,00;0,0461
1727,00;0,0461
1726,00;0,0460
1725,00;0,0460
1724,00;0,0460
1723,00;0,0459
1722,00;0,0458
1721,00;0,0457
1720,00;0,0455
1719,00;0,0455
1718,00;0,0454
1717,00;0,0452
1716,00;0,0450
1715,00;0,0448
1714,00;0,0446
1713,00;0,0444
1712,00;0,0442
1711,00;0,0441
1710,00;0,0440
1709,00;0,0438
1708,00;0,0437
1707,00;0,0435
1706,00;0,0433
1705,00;0,0432
1704,00;0,0431
1703,00;0,0430
1702,00;0,0430
1701,00;0,0429
1700,00;0,0428
1699,00;0,0427
1698,00;0,0426
1697,00;0,0426
1696,00;0,0425
1695,00;0,0425
1694,00;0,0425
1693,00;0,0425
1692,00;0,0426
1691,00;0,0426
1690,00;0,0425
1689,00;0,0425
1688,00;0,0425
1687,00;0,0425
1686,00;0,0425
1685,00;0,0426
1684,00;0,0426
1683,00;0,0426
1682,00;0,0426
1681,00;0,0426
1680,00;0,0426
1679,00;0,0426
1678,00;0,0426
1677,00;0,0426
1676,00;0,0426
1675,00;0,0426
1674,00;0,0426
1673,00;0,0426
1672,00;0,0426
1671,00;0,0426
1670,00;0,0426
1669,00;0,0426
1668,00;0,0426
1667,00;0,0426
1666,00;0,0426
1665,00;0,0426
1664,00;0,0426
1663,00;0,0426
1662,00;0,0426
1661,00;0,0426
1660,00;0,0427
1659,00;0,0427
1658,00;0,0427
1657,00;0,0427
1656,00;0,0427
1655,00;0,0427
1654,00;0,0427
1653,00;0,0427
1652,00;0,0427
1651,00;0,0427
1650,00;0,0428
1649,00;0,0428
1648,00;0,0429
1647,00;0,0429
1646,00;0,0430
1645,00;0,0429
1644,00;0,0429
1643,00;0,0429
1642,00;0,0429
1641,00;0,0430
1640,00;0,0430
1639,00;0,0430
1638,00;0,0430
1637,00;0,0429
1636,00;0,0428
1635,00;0,0428
1634,00;0,0429
1633,00;0,0429
1632,00;0,0430
1631,00;0,0430
1630,00;0,0430
1629,00;0,0430
1628,00;0,0430
1627,00;0,0430
1626,00;0,0430
1625,00;0,0430
1624,00;0,0429
1623,00;0,0429
1622,00;0,0430
1621,00;0,0430
1620,00;0,0430
1619,00;0,0431
1618,00;0,0431
1617,00;0,0431
1616,00;0,0431
1615,00;0,0431
1614,00;0,0431
1613,00;0,0431
1612,00;0,0432
1611,00;0,0432
1610,00;0,0432
1609,00;0,0431
1608,00;0,0431
1607,00;0,0431
1606,00;0,0432
1605,00;0,0432
1604,00;0,0433
1603,00;0,0433
1602,00;0,0432
1601,00;0,0432
1600,00;0,0433
1599,00;0,0433
1598,00;0,0434
1597,00;0,0434
1596,00;0,0434
1595,00;0,0434
1594,00;0,0434
1593,00;0,0435
1592,00;0,0435
1591,00;0,0435
1590,00;0,0435
1589,00;0,0435
1588,00;0,0435
1587,00;0,0435
1586,00;0,0436
1585,00;0,0436
1584,00;0,0436
1583,00;0,0436
1582,00;0,0436
1581,00;0,0436
1580,00;0,0436
1579,00;0,0436
1578,00;0,0437
1577,00;0,0437
1576,00;0,0437
1575,00;0,0437
1574,00;0,0438
1573,00;0,0438
1572,00;0,0439
1571,00;0,0439
1570,00;0,0438
1569,00;0,0438
1568,00;0,0437
1567,00;0,0438
1566,00;0,0438
1565,00;0,0439
1564,00;0,0439
1563,00;0,0440
1562,00;0,0440
1561,00;0,0440
1560,00;0,0440
1559,00;0,0440
1558,00;0,0440
1557,00;0,0441
1556,00;0,0441
1555,00;0,0441
1554,00;0,0441
1553,00;0,0441
1552,00;0,0441
1551,00;0,0441
1550,00;0,0442
1549,00;0,0443
1548,00;0,0443
1547,00;0,0444
1546,00;0,0444
1545,00;0,0445
1544,00;0,0445
1543,00;0,0446
1542,00;0,0446
1541,00;0,0446
1540,00;0,0447
1539,00;0,0448
1538,00;0,0449
1537,00;0,0450
1536,00;0,0450
1535,00;0,0451
1534,00;0,0451
1533,00;0,0452
1532,00;0,0453
1531,00;0,0454
1530,00;0,0455
1529,00;0,0455
1528,00;0,0456
1527,00;0,0457
1526,00;0,0457
1525,00;0,0458
1524,00;0,0459
1523,00;0,0460
1522,00;0,0461
1521,00;0,0461
1520,00;0,0462
1519,00;0,0463
1518,00;0,0463
1517,00;0,0464
1516,00;0,0465
1515,00;0,0465
1514,00;0,0466
1513,00;0,0466
1512,00;0,0466
1511,00;0,0467
1510,00;0,0468
1509,00;0,0469
1508,00;0,0469
1507,00;0,0470
1506,00;0,0470
1505,00;0,0471
1504,00;0,0471
1503,00;0,0472
1502,00;0,0473
1501,00;0,0473
1500,00;0,0474
1499,00;0,0474
1498,00;0,0474
1497,00;0,0474
1496,00;0,0474
1495,00;0,0474
1494,00;0,0474
1493,00;0,0475
1492,00;0,0475
1491,00;0,0475
1490,00;0,0476
1489,00;0,0477
1488,00;0,0477
1487,00;0,0478
1486,00;0,0479
1485,00;0,0479
1484,00;0,0479
1483,00;0,0479
1482,00;0,0478
1481,00;0,0478
1480,00;0,0479
1479,00;0,0479
1478,00;0,0480
1477,00;0,0480
1476,00;0,0480
1475,00;0,0480
1474,00;0,0480
1473,00;0,0479
1472,00;0,0478
1471,00;0,0478
1470,00;0,0478
1469,00;0,0478
1468,00;0,0478
1467,00;0,0478
1466,00;0,0478
1465,00;0,0479
1464,00;0,0479
1463,00;0,0480
1462,00;0,0481
1461,00;0,0481
1460,00;0,0481
1459,00;0,0482
1458,00;0,0482
1457,00;0,0483
1456,00;0,0484
1455,00;0,0485
1454,00;0,0485
1453,00;0,0486
1452,00;0,0486
1451,00;0,0487
1450,00;0,0488
1449,00;0,0488
1448,00;0,0489
1447,00;0,0489
1446,00;0,0490
1445,00;0,0491
1444,00;0,0491
1443,00;0,0491
1442,00;0,0492
1441,00;0,0492
1440,00;0,0493
1439,00;0,0494
1438,00;0,0494
1437,00;0,0494
1436,00;0,0495
1435,00;0,0495
1434,00;0,0496
1433,00;0,0497
1432,00;0,0497
1431,00;0,0497
1430,00;0,0497
1429,00;0,0498
1428,00;0,0499
1427,00;0,0499
1426,00;0,0500
1425,00;0,0500
1424,00;0,0500
1423,00;0,0500
1422,00;0,0501
1421,00;0,0502
1420,00;0,0502
1419,00;0,0503
1418,00;0,0503
1417,00;0,0504
1416,00;0,0504
1415,00;0,0505
1414,00;0,0506
1413,00;0,0507
1412,00;0,0508
1411,00;0,0509
1410,00;0,0510
1409,00;0,0511
1408,00;0,0512
1407,00;0,0513
1406,00;0,0513
1405,00;0,0513
1404,00;0,0513
1403,00;0,0514
1402,00;0,0514
1401,00;0,0515
1400,00;0,0516
1399,00;0,0516
1398,00;0,0516
1397,00;0,0517
1396,00;0,0517
1395,00;0,0516
1394,00;0,0517
1393,00;0,0517
1392,00;0,0517
1391,00;0,0518
1390,00;0,0518
1389,00;0,0518
1388,00;0,0519
1387,00;0,0519
1386,00;0,0521
1385,00;0,0522
1384,00;0,0524
1383,00;0,0525
1382,00;0,0527
1381,00;0,0528
1380,00;0,0530
1379,00;0,0531
1378,00;0,0532
1377,00;0,0533
1376,00;0,0534
1375,00;0,0534
1374,00;0,0534
1373,00;0,0535
1372,00;0,0535
1371,00;0,0535
1370,00;0,0535
1369,00;0,0535
1368,00;0,0536
1367,00;0,0537
1366,00;0,0537
1365,00;0,0537
1364,00;0,0534
1363,00;0,0532
1362,00;0,0529
1361,00;0,0528
1360,00;0,0527
1359,00;0,0526
1358,00;0,0525
1357,00;0,0525
1356,00;0,0525
1355,00;0,0524
1354,00;0,0524
1353,00;0,0523
1352,00;0,0523
1351,00;0,0522
1350,00;0,0521
1349,00;0,0519
1348,00;0,0518
1347,00;0,0516
1346,00;0,0514
1345,00;0,0512
1344,00;0,0511
1343,00;0,0509
1342,00;0,0508
1341,00;0,0507
1340,00;0,0505
1339,00;0,0503
1338,00;0,0502
1337,00;0,0501
1336,00;0,0501
1335,00;0,0500
1334,00;0,0500
1333,00;0,0499
1332,00;0,0498
1331,00;0,0497
1330,00;0,0497
1329,00;0,0497
1328,00;0,0497
1327,00;0,0496
1326,00;0,0496
1325,00;0,0495
1324,00;0,0495
1323,00;0,0494
1322,00;0,0494
1321,00;0,0494
1320,00;0,0494
1319,00;0,0494
1318,00;0,0494
1317,00;0,0493
1316,00;0,0493
1315,00;0,0493
1314,00;0,0492
1313,00;0,0492
1312,00;0,0493
1311,00;0,0493
1310,00;0,0493
1309,00;0,0493
1308,00;0,0493
1307,00;0,0493
1306,00;0,0493
1305,00;0,0494
1304,00;0,0493
1303,00;0,0493
1302,00;0,0493
1301,00;0,0492
1300,00;0,0492
1299,00;0,0491
1298,00;0,0491
1297,00;0,0491
1296,00;0,0491
1295,00;0,0491
1294,00;0,0492
1293,00;0,0492
1292,00;0,0492
1291,00;0,0492
1290,00;0,0492
1289,00;0,0491
1288,00;0,0491
1287,00;0,0491
1286,00;0,0491
1285,00;0,0491
1284,00;0,0491
1283,00;0,0491
1282,00;0,0491
1281,00;0,0491
1280,00;0,0490
1279,00;0,0490
1278,00;0,0489
1277,00;0,0489
1276,00;0,0489
1275,00;0,0489
1274,00;0,0489
1273,00;0,0489
1272,00;0,0488
1271,00;0,0488
1270,00;0,0487
1269,00;0,0487
1268,00;0,0487
1267,00;0,0487
1266,00;0,0487
1265,00;0,0487
1264,00;0,0486
1263,00;0,0486
1262,00;0,0486
1261,00;0,0486
1260,00;0,0487
1259,00;0,0488
1258,00;0,0489
1257,00;0,0490
1256,00;0,0491
1255,00;0,0491
1254,00;0,0492
1253,00;0,0492
1252,00;0,0492
1251,00;0,0493
1250,00;0,0493
1249,00;0,0494
1248,00;0,0494
1247,00;0,0494
1246,00;0,0495
1245,00;0,0497
1244,00;0,0498
1243,00;0,0500
1242,00;0,0502
1241,00;0,0504
1240,00;0,0507
1239,00;0,0510
1238,00;0,0513
1237,00;0,0516
1236,00;0,0519
1235,00;0,0522
1234,00;0,0526
1233,00;0,0529
1232,00;0,0531
1231,00;0,0533
1230,00;0,0535
1229,00;0,0535
1228,00;0,0535
1227,00;0,0534
1226,00;0,0533
1225,00;0,0531
1224,00;0,0529
1223,00;0,0527
1222,00;0,0527
1221,00;0,0530
1220,00;0,0534
1219,00;0,0540
1218,00;0,0544
1217,00;0,0545
1216,00;0,0543
1215,00;0,0540
1214,00;0,0538
1213,00;0,0536
1212,00;0,0535
1211,00;0,0534
1210,00;0,0534
1209,00;0,0534
1208,00;0,0534
1207,00;0,0535
1206,00;0,0535
1205,00;0,0535
1204,00;0,0535
1203,00;0,0534
1202,00;0,0533
1201,00;0,0531
1200,00;0,0529
1199,00;0,0527
1198,00;0,0526
1197,00;0,0525
1196,00;0,0523
1195,00;0,0521
1194,00;0,0519
1193,00;0,0518
1192,00;0,0516
1191,00;0,0515
1190,00;0,0514
1189,00;0,0512
1188,00;0,0511
1187,00;0,0510
1186,00;0,0510
1185,00;0,0509
1184,00;0,0508
1183,00;0,0507
1182,00;0,0507
1181,00;0,0506
1180,00;0,0506
1179,00;0,0506
1178,00;0,0506
1177,00;0,0506
1176,00;0,0506
1175,00;0,0506
1174,00;0,0506
1173,00;0,0506
1172,00;0,0506
1171,00;0,0505
1170,00;0,0505
1169,00;0,0505
1168,00;0,0505
1167,00;0,0506
1166,00;0,0506
1165,00;0,0507
1164,00;0,0507
1163,00;0,0507
1162,00;0,0507
1161,00;0,0507
1160,00;0,0508
1159,00;0,0508
1158,00;0,0508
1157,00;0,0508
1156,00;0,0508
1155,00;0,0507
1154,00;0,0507
1153,00;0,0508
1152,00;0,0509
1151,00;0,0509
1150,00;0,0510
1149,00;0,0511
1148,00;0,0511
1147,00;0,0511
1146,00;0,0511
1145,00;0,0511
1144,00;0,0511
1143,00;0,0512
1142,00;0,0512
1141,00;0,0513
1140,00;0,0513
1139,00;0,0513
1138,00;0,0512
1137,00;0,0512
1136,00;0,0512
1135,00;0,0512
1134,00;0,0512
1133,00;0,0513
1132,00;0,0513
1131,00;0,0513
1130,00;0,0513
1129,00;0,0512
1128,00;0,0512
1127,00;0,0512
1126,00;0,0513
1125,00;0,0514
1124,00;0,0514
1123,00;0,0514
1122,00;0,0514
1121,00;0,0513
1120,00;0,0513
1119,00;0,0513
1118,00;0,0513
1117,00;0,0514
1116,00;0,0514
1115,00;0,0514
1114,00;0,0514
1113,00;0,0514
1112,00;0,0514
1111,00;0,0514
1110,00;0,0514
1109,00;0,0515
1108,00;0,0515
1107,00;0,0515
1106,00;0,0516
1105,00;0,0516
1104,00;0,0516
1103,00;0,0516
1102,00;0,0516
1101,00;0,0516
1100,00;0,0516
1099,00;0,0516
1098,00;0,0516
1097,00;0,0516
1096,00;0,0516
1095,00;0,0516
1094,00;0,0517
1093,00;0,0517
1092,00;0,0518
1091,00;0,0518
1090,00;0,0517
1089,00;0,0517
1088,00;0,0517
1087,00;0,0517
1086,00;0,0518
1085,00;0,0519
1084,00;0,0519
1083,00;0,0519
1082,00;0,0519
1081,00;0,0519
1080,00;0,0518
1079,00;0,0517
1078,00;0,0517
1077,00;0,0518
1076,00;0,0518
1075,00;0,0518
1074,00;0,0518
1073,00;0,0518
1072,00;0,0517
1071,00;0,0517
1070,00;0,0517
1069,00;0,0518
1068,00;0,0518
1067,00;0,0518
1066,00;0,0518
1065,00;0,0518
1064,00;0,0518
1063,00;0,0518
1062,00;0,0518
1061,00;0,0518
1060,00;0,0518
1059,00;0,0517
1058,00;0,0518
1057,00;0,0518
1056,00;0,0518
1055,00;0,0518
1054,00;0,0518
1053,00;0,0519
1052,00;0,0518
1051,00;0,0518
1050,00;0,0517
1049,00;0,0517
1048,00;0,0517
1047,00;0,0517
1046,00;0,0518
1045,00;0,0518
1044,00;0,0518
1043,00;0,0517
1042,00;0,0517
1041,00;0,0518
1040,00;0,0518
1039,00;0,0517
1038,00;0,0517
1037,00;0,0517
1036,00;0,0517
1035,00;0,0518
1034,00;0,0519
1033,00;0,0520
1032,00;0,0521
1031,00;0,0523
1030,00;0,0524
1029,00;0,0525
1028,00;0,0525
1027,00;0,0525
1026,00;0,0526
1025,00;0,0527
1024,00;0,0528
1023,00;0,0530
1022,00;0,0532
1021,00;0,0533
1020,00;0,0535
1019,00;0,0536
1018,00;0,0538
1017,00;0,0540
1016,00;0,0542
1015,00;0,0543
1014,00;0,0545
1013,00;0,0546
1012,00;0,0546
1011,00;0,0547
1010,00;0,0548
1009,00;0,0550
1008,00;0,0552
1007,00;0,0554
1006,00;0,0556
1005,00;0,0558
1004,00;0,0559
1003,00;0,0560
1002,00;0,0562
1001,00;0,0563
1000,00;0,0564
999,00;0,0565
998,00;0,0567
997,00;0,0569
996,00;0,0572
995,00;0,0573
994,00;0,0574
993,00;0,0574
992,00;0,0573
991,00;0,0571
990,00;0,0571
989,00;0,0570
988,00;0,0570
987,00;0,0569
986,00;0,0568
985,00;0,0567
984,00;0,0566
983,00;0,0564
982,00;0,0563
981,00;0,0563
980,00;0,0562
979,00;0,0562
978,00;0,0562
977,00;0,0561
976,00;0,0560
975,00;0,0559
974,00;0,0558
973,00;0,0556
972,00;0,0555
971,00;0,0554
970,00;0,0553
969,00;0,0553
968,00;0,0552
967,00;0,0551
966,00;0,0551
965,00;0,0550
964,00;0,0550
963,00;0,0550
962,00;0,0549
961,00;0,0549
960,00;0,0548
959,00;0,0548
958,00;0,0548
957,00;0,0549
956,00;0,0550
955,00;0,0551
954,00;0,0553
953,00;0,0554
952,00;0,0554
951,00;0,0555
950,00;0,0555
949,00;0,0556
948,00;0,0557
947,00;0,0558
946,00;0,0559
945,00;0,0560
944,00;0,0561
943,00;0,0562
942,00;0,0563
941,00;0,0564
940,00;0,0564
939,00;0,0565
938,00;0,0566
937,00;0,0567
936,00;0,0568
935,00;0,0569
934,00;0,0570
933,00;0,0571
932,00;0,0571
931,00;0,0571
930,00;0,0572
929,00;0,0572
928,00;0,0573
927,00;0,0574
926,00;0,0575
925,00;0,0577
924,00;0,0578
923,00;0,0580
922,00;0,0581
921,00;0,0583
920,00;0,0583
919,00;0,0584
918,00;0,0585
917,00;0,0586
916,00;0,0588
915,00;0,0590
914,00;0,0592
913,00;0,0594
912,00;0,0594
911,00;0,0595
910,00;0,0596
909,00;0,0597
908,00;0,0598
907,00;0,0598
906,00;0,0598
905,00;0,0598
904,00;0,0599
903,00;0,0600
902,00;0,0601
901,00;0,0602
900,00;0,0603
899,00;0,0603
898,00;0,0604
897,00;0,0605
896,00;0,0606
895,00;0,0607
894,00;0,0607
893,00;0,0606
892,00;0,0606
891,00;0,0605
890,00;0,0605
889,00;0,0604
888,00;0,0604
887,00;0,0604
886,00;0,0605
885,00;0,0606
884,00;0,0608
883,00;0,0610
882,00;0,0613
881,00;0,0615
880,00;0,0617
879,00;0,0618
878,00;0,0620
877,00;0,0622
876,00;0,0624
875,00;0,0626
874,00;0,0629
873,00;0,0631
872,00;0,0632
871,00;0,0631
870,00;0,0629
869,00;0,0627
868,00;0,0623
867,00;0,0620
866,00;0,0617
865,00;0,0616
864,00;0,0614
863,00;0,0612
862,00;0,0610
861,00;0,0608
860,00;0,0605
859,00;0,0603
858,00;0,0601
857,00;0,0599
856,00;0,0597
855,00;0,0596
854,00;0,0596
853,00;0,0597
852,00;0,0599
851,00;0,0600
850,00;0,0602
849,00;0,0602
848,00;0,0602
847,00;0,0602
846,00;0,0602
845,00;0,0602
844,00;0,0601
843,00;0,0599
842,00;0,0596
841,00;0,0593
840,00;0,0590
839,00;0,0587
838,00;0,0586
837,00;0,0584
836,00;0,0582
835,00;0,0581
834,00;0,0580
833,00;0,0578
832,00;0,0576
831,00;0,0575
830,00;0,0573
829,00;0,0572
828,00;0,0570
827,00;0,0569
826,00;0,0568
825,00;0,0568
824,00;0,0567
823,00;0,0566
822,00;0,0566
821,00;0,0564
820,00;0,0563
819,00;0,0562
818,00;0,0562
817,00;0,0562
816,00;0,0561
815,00;0,0561
814,00;0,0560
813,00;0,0559
812,00;0,0557
811,00;0,0556
810,00;0,0555
809,00;0,0554
808,00;0,0553
807,00;0,0551
806,00;0,0550
805,00;0,0549
804,00;0,0549
803,00;0,0549
802,00;0,0549
801,00;0,0548
800,00;0,0546
799,00;0,0545
798,00;0,0545
797,00;0,0545
796,00;0,0545
795,00;0,0544
794,00;0,0544
793,00;0,0542
792,00;0,0541
791,00;0,0541
790,00;0,0541
789,00;0,0542
788,00;0,0542
787,00;0,0541
786,00;0,0539
785,00;0,0538
784,00;0,0537
783,00;0,0535
782,00;0,0534
781,00;0,0533
780,00;0,0532
779,00;0,0531
778,00;0,0530
777,00;0,0530
776,00;0,0529
775,00;0,0528
774,00;0,0527
773,00;0,0525
772,00;0,0523
771,00;0,0522
770,00;0,0522
769,00;0,0521
768,00;0,0519
767,00;0,0517
766,00;0,0516
765,00;0,0515
764,00;0,0514
763,00;0,0511
762,00;0,0509
761,00;0,0508
760,00;0,0508
759,00;0,0509
758,00;0,0511
757,00;0,0511
756,00;0,0511
755,00;0,0510
754,00;0,0510
753,00;0,0509
752,00;0,0508
751,00;0,0506
750,00;0,0506
749,00;0,0507
748,00;0,0508
747,00;0,0509
746,00;0,0510
745,00;0,0511
744,00;0,0511
743,00;0,0512
742,00;0,0514
741,00;0,0515
740,00;0,0515
739,00;0,0515
738,00;0,0516
737,00;0,0516
736,00;0,0517
735,00;0,0519
734,00;0,0522
733,00;0,0524
732,00;0,0525
731,00;0,0526
730,00;0,0528
729,00;0,0530
728,00;0,0532
727,00;0,0533
726,00;0,0535
725,00;0,0536
724,00;0,0536
723,00;0,0536
722,00;0,0537
721,00;0,0537
720,00;0,0538
719,00;0,0539
718,00;0,0541
717,00;0,0543
716,00;0,0545
715,00;0,0546
714,00;0,0549
713,00;0,0551
712,00;0,0552
711,00;0,0552
710,00;0,0551
709,00;0,0550
708,00;0,0549
707,00;0,0548
706,00;0,0548
705,00;0,0547
704,00;0,0546
703,00;0,0546
702,00;0,0547
701,00;0,0547
700,00;0,0547
699,00;0,0545
698,00;0,0545
697,00;0,0545
696,00;0,0544
695,00;0,0543
694,00;0,0543
693,00;0,0543
692,00;0,0542
691,00;0,0542
690,00;0,0542
689,00;0,0543
688,00;0,0543
687,00;0,0544
686,00;0,0545
685,00;0,0545
684,00;0,0544
683,00;0,0544
682,00;0,0544
681,00;0,0544
680,00;0,0544
679,00;0,0544
678,00;0,0544
677,00;0,0545
676,00;0,0544
675,00;0,0543
674,00;0,0543
673,00;0,0544
672,00;0,0543
671,00;0,0543
670,00;0,0543
669,00;0,0543
668,00;0,0545
667,00;0,0547
666,00;0,0547
665,00;0,0547
664,00;0,0547
663,00;0,0547
662,00;0,0549
661,00;0,0550
660,00;0,0551
659,00;0,0553
658,00;0,0555
657,00;0,0557
656,00;0,0558
655,00;0,0559
654,00;0,0562
653,00;0,0565
652,00;0,0568
651,00;0,0572
650,00;0,0576
649,00;0,0580
648,00;0,0583
647,00;0,0586
646,00;0,0590
645,00;0,0594
644,00;0,0597
643,00;0,0598
642,00;0,0599
641,00;0,0600
640,00;0,0600
639,00;0,0601
638,00;0,0605
637,00;0,0609
636,00;0,0614
635,00;0,0619
634,00;0,0624
633,00;0,0629
632,00;0,0634
631,00;0,0638
630,00;0,0643
629,00;0,0647
628,00;0,0650
627,00;0,0652
626,00;0,0654
625,00;0,0657
624,00;0,0661
623,00;0,0665
622,00;0,0669
621,00;0,0673
620,00;0,0676
619,00;0,0678
618,00;0,0681
617,00;0,0684
616,00;0,0687
615,00;0,0691
614,00;0,0696
613,00;0,0700
612,00;0,0702
611,00;0,0702
610,00;0,0702
609,00;0,0703
608,00;0,0705
607,00;0,0709
606,00;0,0713
605,00;0,0718
604,00;0,0721
603,00;0,0722
602,00;0,0723
601,00;0,0725
600,00;0,0726
599,00;0,0729
598,00;0,0732
597,00;0,0736
596,00;0,0738
595,00;0,0740
594,00;0,0741
593,00;0,0742
592,00;0,0744
591,00;0,0748
590,00;0,0755
589,00;0,0762
588,00;0,0767
587,00;0,0771
586,00;0,0776
585,00;0,0781
584,00;0,0784
583,00;0,0788
582,00;0,0794
581,00;0,0801
580,00;0,0806
579,00;0,0810
578,00;0,0814
577,00;0,0817
576,00;0,0819
575,00;0,0819
574,00;0,0820
573,00;0,0822
572,00;0,0825
571,00;0,0829
570,00;0,0833
569,00;0,0837
568,00;0,0840
567,00;0,0843
566,00;0,0848
565,00;0,0853
564,00;0,0856
563,00;0,0858
562,00;0,0858
561,00;0,0857
560,00;0,0856
559,00;0,0856
558,00;0,0857
557,00;0,0858
556,00;0,0857
555,00;0,0856
554,00;0,0855
553,00;0,0855
552,00;0,0856
551,00;0,0859
550,00;0,0862
549,00;0,0866
548,00;0,0868
547,00;0,0869
546,00;0,0870
545,00;0,0869
544,00;0,0868
543,00;0,0869
542,00;0,0874
541,00;0,0880
540,00;0,0884
539,00;0,0884
538,00;0,0884
537,00;0,0882
536,00;0,0880
535,00;0,0879
534,00;0,0880
533,00;0,0882
532,00;0,0883
531,00;0,0884
530,00;0,0887
529,00;0,0891
528,00;0,0894
527,00;0,0897
526,00;0,0899
525,00;0,0901
524,00;0,0904
523,00;0,0909
522,00;0,0915
521,00;0,0921
520,00;0,0925
519,00;0,0928
518,00;0,0930
517,00;0,0931
516,00;0,0932
515,00;0,0931
514,00;0,0931
513,00;0,0930
512,00;0,0931
511,00;0,0933
510,00;0,0936
509,00;0,0937
508,00;0,0934
507,00;0,0930
506,00;0,0929
505,00;0,0931
504,00;0,0933
503,00;0,0934
502,00;0,0936
501,00;0,0937
500,00;0,0935
499,00;0,0933
498,00;0,0933
497,00;0,0935
496,00;0,0939
495,00;0,0943
494,00;0,0948
493,00;0,0953
492,00;0,0956
491,00;0,0961
490,00;0,0967
489,00;0,0971
488,00;0,0971
487,00;0,0969
486,00;0,0971
485,00;0,0977
484,00;0,0985
483,00;0,0994
482,00;0,1002
481,00;0,1008
480,00;0,1011
479,00;0,1014
478,00;0,1018
477,00;0,1022
476,00;0,1025
475,00;0,1027
474,00;0,1027
473,00;0,1028
472,00;0,1029
471,00;0,1034
470,00;0,1042
469,00;0,1048
468,00;0,1051
467,00;0,1056
466,00;0,1065
465,00;0,1075
464,00;0,1082
463,00;0,1088
462,00;0,1099
461,00;0,1113
460,00;0,1122
459,00;0,1123
458,00;0,1119
457,00;0,1116
456,00;0,1119
455,00;0,1125
454,00;0,1132
453,00;0,1136
452,00;0,1138
451,00;0,1142
450,00;0,1149
449,00;0,1156
448,00;0,1161
447,00;0,1165
446,00;0,1171
445,00;0,1181
444,00;0,1192
443,00;0,1204
442,00;0,1214
441,00;0,1220
440,00;0,1226
439,00;0,1237
438,00;0,1252
437,00;0,1263
436,00;0,1263
435,00;0,1258
434,00;0,1255
433,00;0,1255
432,00;0,1257
431,00;0,1261
430,00;0,1266
429,00;0,1270
428,00;0,1271
427,00;0,1268
426,00;0,1262
425,00;0,1248
424,00;0,1232
423,00;0,1228
422,00;0,1245
421,00;0,1270
420,00;0,1288
419,00;0,1295
418,00;0,1298
417,00;0,1299
416,00;0,1299
415,00;0,1304
414,00;0,1316
413,00;0,1325
412,00;0,1324
411,00;0,1318
410,00;0,1312
409,00;0,1296
408,00;0,1270
407,00;0,1252
406,00;0,1257
405,00;0,1277
404,00;0,1290
403,00;0,1293
402,00;0,1299
401,00;0,1306
400,00;0,1309
