Создан как новый массив данных;Образец 010 полученный BalashovM Дата пятница, апреля 21 2023
cm-1;A
4000,00;0,0233
3999,00;0,0233
3998,00;0,0233
3997,00;0,0234
3996,00;0,0234
3995,00;0,0234
3994,00;0,0234
3993,00;0,0234
3992,00;0,0234
3991,00;0,0234
3990,00;0,0234
3989,00;0,0234
3988,00;0,0234
3987,00;0,0233
3986,00;0,0233
3985,00;0,0233
3984,00;0,0233
3983,00;0,0233
3982,00;0,0234
3981,00;0,0234
3980,00;0,0234
3979,00;0,0234
3978,00;0,0234
3977,00;0,0234
3976,00;0,0234
3975,00;0,0234
3974,00;0,0234
3973,00;0,0234
3972,00;0,0235
3971,00;0,0235
3970,00;0,0235
3969,00;0,0235
3968,00;0,0234
3967,00;0,0234
3966,00;0,0234
3965,00;0,0234
3964,00;0,0234
3963,00;0,0234
3962,00;0,0234
3961,00;0,0234
3960,00;0,0234
3959,00;0,0234
3958,00;0,0234
3957,00;0,0234
3956,00;0,0234
3955,00;0,0234
3954,00;0,0234
3953,00;0,0234
3952,00;0,0233
3951,00;0,0233
3950,00;0,0234
3949,00;0,0234
3948,00;0,0234
3947,00;0,0234
3946,00;0,0234
3945,00;0,0234
3944,00;0,0234
3943,00;0,0234
3942,00;0,0235
3941,00;0,0235
3940,00;0,0235
3939,00;0,0235
3938,00;0,0236
3937,00;0,0236
3936,00;0,0236
3935,00;0,0236
3934,00;0,0236
3933,00;0,0235
3932,00;0,0235
3931,00;0,0235
3930,00;0,0235
3929,00;0,0235
3928,00;0,0235
3927,00;0,0235
3926,00;0,0235
3925,00;0,0236
3924,00;0,0236
3923,00;0,0236
3922,00;0,0235
3921,00;0,0235
3920,00;0,0235
3919,00;0,0235
3918,00;0,0235
3917,00;0,0234
3916,00;0,0234
3915,00;0,0234
3914,00;0,0234
3913,00;0,0234
3912,00;0,0235
3911,00;0,0235
3910,00;0,0236
3909,00;0,0236
3908,00;0,0236
3907,00;0,0236
3906,00;0,0235
3905,00;0,0235
3904,00;0,0235
3903,00;0,0234
3902,00;0,0233
3901,00;0,0233
3900,00;0,0232
3899,00;0,0232
3898,00;0,0233
3897,00;0,0234
3896,00;0,0234
3895,00;0,0235
3894,00;0,0235
3893,00;0,0235
3892,00;0,0235
3891,00;0,0235
3890,00;0,0235
3889,00;0,0235
3888,00;0,0234
3887,00;0,0234
3886,00;0,0234
3885,00;0,0235
3884,00;0,0234
3883,00;0,0234
3882,00;0,0233
3881,00;0,0233
3880,00;0,0233
3879,00;0,0234
3878,00;0,0234
3877,00;0,0235
3876,00;0,0235
3875,00;0,0235
3874,00;0,0236
3873,00;0,0236
3872,00;0,0236
3871,00;0,0235
3870,00;0,0235
3869,00;0,0235
3868,00;0,0235
3867,00;0,0235
3866,00;0,0234
3865,00;0,0234
3864,00;0,0235
3863,00;0,0235
3862,00;0,0235
3861,00;0,0235
3860,00;0,0236
3859,00;0,0236
3858,00;0,0236
3857,00;0,0236
3856,00;0,0236
3855,00;0,0235
3854,00;0,0234
3853,00;0,0234
3852,00;0,0234
3851,00;0,0234
3850,00;0,0233
3849,00;0,0233
3848,00;0,0234
3847,00;0,0234
3846,00;0,0235
3845,00;0,0235
3844,00;0,0235
3843,00;0,0235
3842,00;0,0235
3841,00;0,0235
3840,00;0,0235
3839,00;0,0235
3838,00;0,0235
3837,00;0,0235
3836,00;0,0235
3835,00;0,0234
3834,00;0,0234
3833,00;0,0234
3832,00;0,0235
3831,00;0,0236
3830,00;0,0236
3829,00;0,0236
3828,00;0,0236
3827,00;0,0236
3826,00;0,0236
3825,00;0,0236
3824,00;0,0236
3823,00;0,0236
3822,00;0,0235
3821,00;0,0235
3820,00;0,0235
3819,00;0,0235
3818,00;0,0234
3817,00;0,0234
3816,00;0,0235
3815,00;0,0236
3814,00;0,0236
3813,00;0,0236
3812,00;0,0235
3811,00;0,0236
3810,00;0,0236
3809,00;0,0237
3808,00;0,0237
3807,00;0,0238
3806,00;0,0238
3805,00;0,0237
3804,00;0,0236
3803,00;0,0236
3802,00;0,0236
3801,00;0,0237
3800,00;0,0237
3799,00;0,0237
3798,00;0,0236
3797,00;0,0236
3796,00;0,0236
3795,00;0,0237
3794,00;0,0237
3793,00;0,0238
3792,00;0,0238
3791,00;0,0239
3790,00;0,0239
3789,00;0,0239
3788,00;0,0239
3787,00;0,0239
3786,00;0,0239
3785,00;0,0238
3784,00;0,0238
3783,00;0,0239
3782,00;0,0238
3781,00;0,0238
3780,00;0,0238
3779,00;0,0238
3778,00;0,0238
3777,00;0,0238
3776,00;0,0238
3775,00;0,0238
3774,00;0,0239
3773,00;0,0239
3772,00;0,0239
3771,00;0,0239
3770,00;0,0239
3769,00;0,0238
3768,00;0,0238
3767,00;0,0237
3766,00;0,0237
3765,00;0,0238
3764,00;0,0238
3763,00;0,0239
3762,00;0,0239
3761,00;0,0238
3760,00;0,0238
3759,00;0,0238
3758,00;0,0238
3757,00;0,0238
3756,00;0,0238
3755,00;0,0238
3754,00;0,0238
3753,00;0,0238
3752,00;0,0238
3751,00;0,0238
3750,00;0,0237
3749,00;0,0236
3748,00;0,0236
3747,00;0,0235
3746,00;0,0234
3745,00;0,0234
3744,00;0,0235
3743,00;0,0236
3742,00;0,0236
3741,00;0,0236
3740,00;0,0236
3739,00;0,0237
3738,00;0,0237
3737,00;0,0237
3736,00;0,0237
3735,00;0,0236
3734,00;0,0236
3733,00;0,0236
3732,00;0,0236
3731,00;0,0237
3730,00;0,0237
3729,00;0,0238
3728,00;0,0238
3727,00;0,0238
3726,00;0,0239
3725,00;0,0239
3724,00;0,0238
3723,00;0,0238
3722,00;0,0238
3721,00;0,0239
3720,00;0,0239
3719,00;0,0240
3718,00;0,0240
3717,00;0,0240
3716,00;0,0240
3715,00;0,0240
3714,00;0,0239
3713,00;0,0239
3712,00;0,0238
3711,00;0,0238
3710,00;0,0237
3709,00;0,0237
3708,00;0,0237
3707,00;0,0237
3706,00;0,0238
3705,00;0,0238
3704,00;0,0238
3703,00;0,0238
3702,00;0,0239
3701,00;0,0239
3700,00;0,0239
3699,00;0,0239
3698,00;0,0239
3697,00;0,0239
3696,00;0,0239
3695,00;0,0239
3694,00;0,0239
3693,00;0,0238
3692,00;0,0238
3691,00;0,0237
3690,00;0,0237
3689,00;0,0237
3688,00;0,0237
3687,00;0,0237
3686,00;0,0237
3685,00;0,0237
3684,00;0,0238
3683,00;0,0239
3682,00;0,0239
3681,00;0,0240
3680,00;0,0239
3679,00;0,0239
3678,00;0,0239
3677,00;0,0238
3676,00;0,0237
3675,00;0,0237
3674,00;0,0237
3673,00;0,0237
3672,00;0,0236
3671,00;0,0236
3670,00;0,0236
3669,00;0,0237
3668,00;0,0237
3667,00;0,0237
3666,00;0,0237
3665,00;0,0238
3664,00;0,0238
3663,00;0,0239
3662,00;0,0239
3661,00;0,0239
3660,00;0,0239
3659,00;0,0239
3658,00;0,0239
3657,00;0,0239
3656,00;0,0239
3655,00;0,0239
3654,00;0,0239
3653,00;0,0238
3652,00;0,0237
3651,00;0,0237
3650,00;0,0237
3649,00;0,0237
3648,00;0,0236
3647,00;0,0236
3646,00;0,0236
3645,00;0,0236
3644,00;0,0237
3643,00;0,0238
3642,00;0,0239
3641,00;0,0240
3640,00;0,0240
3639,00;0,0240
3638,00;0,0241
3637,00;0,0241
3636,00;0,0241
3635,00;0,0241
3634,00;0,0241
3633,00;0,0241
3632,00;0,0240
3631,00;0,0239
3630,00;0,0239
3629,00;0,0238
3628,00;0,0238
3627,00;0,0238
3626,00;0,0238
3625,00;0,0238
3624,00;0,0239
3623,00;0,0239
3622,00;0,0240
3621,00;0,0239
3620,00;0,0239
3619,00;0,0239
3618,00;0,0239
3617,00;0,0239
3616,00;0,0239
3615,00;0,0238
3614,00;0,0238
3613,00;0,0238
3612,00;0,0238
3611,00;0,0239
3610,00;0,0239
3609,00;0,0239
3608,00;0,0239
3607,00;0,0239
3606,00;0,0239
3605,00;0,0239
3604,00;0,0240
3603,00;0,0240
3602,00;0,0241
3601,00;0,0241
3600,00;0,0241
3599,00;0,0241
3598,00;0,0241
3597,00;0,0241
3596,00;0,0241
3595,00;0,0241
3594,00;0,0241
3593,00;0,0241
3592,00;0,0241
3591,00;0,0241
3590,00;0,0241
3589,00;0,0241
3588,00;0,0241
3587,00;0,0240
3586,00;0,0240
3585,00;0,0240
3584,00;0,0240
3583,00;0,0240
3582,00;0,0241
3581,00;0,0241
3580,00;0,0242
3579,00;0,0242
3578,00;0,0242
3577,00;0,0242
3576,00;0,0242
3575,00;0,0242
3574,00;0,0242
3573,00;0,0242
3572,00;0,0242
3571,00;0,0242
3570,00;0,0242
3569,00;0,0242
3568,00;0,0241
3567,00;0,0241
3566,00;0,0240
3565,00;0,0240
3564,00;0,0240
3563,00;0,0240
3562,00;0,0240
3561,00;0,0241
3560,00;0,0241
3559,00;0,0242
3558,00;0,0242
3557,00;0,0242
3556,00;0,0242
3555,00;0,0242
3554,00;0,0243
3553,00;0,0243
3552,00;0,0243
3551,00;0,0243
3550,00;0,0243
3549,00;0,0243
3548,00;0,0243
3547,00;0,0243
3546,00;0,0243
3545,00;0,0242
3544,00;0,0242
3543,00;0,0242
3542,00;0,0243
3541,00;0,0243
3540,00;0,0243
3539,00;0,0243
3538,00;0,0244
3537,00;0,0244
3536,00;0,0244
3535,00;0,0244
3534,00;0,0244
3533,00;0,0244
3532,00;0,0244
3531,00;0,0244
3530,00;0,0244
3529,00;0,0244
3528,00;0,0243
3527,00;0,0243
3526,00;0,0243
3525,00;0,0244
3524,00;0,0244
3523,00;0,0244
3522,00;0,0244
3521,00;0,0245
3520,00;0,0245
3519,00;0,0245
3518,00;0,0244
3517,00;0,0244
3516,00;0,0244
3515,00;0,0244
3514,00;0,0244
3513,00;0,0245
3512,00;0,0245
3511,00;0,0245
3510,00;0,0244
3509,00;0,0244
3508,00;0,0244
3507,00;0,0244
3506,00;0,0245
3505,00;0,0245
3504,00;0,0246
3503,00;0,0246
3502,00;0,0246
3501,00;0,0246
3500,00;0,0245
3499,00;0,0245
3498,00;0,0245
3497,00;0,0245
3496,00;0,0245
3495,00;0,0245
3494,00;0,0245
3493,00;0,0245
3492,00;0,0246
3491,00;0,0246
3490,00;0,0246
3489,00;0,0246
3488,00;0,0246
3487,00;0,0246
3486,00;0,0246
3485,00;0,0246
3484,00;0,0246
3483,00;0,0246
3482,00;0,0246
3481,00;0,0245
3480,00;0,0245
3479,00;0,0245
3478,00;0,0245
3477,00;0,0246
3476,00;0,0246
3475,00;0,0247
3474,00;0,0247
3473,00;0,0247
3472,00;0,0247
3471,00;0,0247
3470,00;0,0247
3469,00;0,0247
3468,00;0,0247
3467,00;0,0247
3466,00;0,0247
3465,00;0,0247
3464,00;0,0247
3463,00;0,0247
3462,00;0,0246
3461,00;0,0246
3460,00;0,0246
3459,00;0,0246
3458,00;0,0246
3457,00;0,0246
3456,00;0,0246
3455,00;0,0247
3454,00;0,0247
3453,00;0,0248
3452,00;0,0248
3451,00;0,0247
3450,00;0,0247
3449,00;0,0247
3448,00;0,0247
3447,00;0,0247
3446,00;0,0248
3445,00;0,0248
3444,00;0,0248
3443,00;0,0248
3442,00;0,0247
3441,00;0,0247
3440,00;0,0247
3439,00;0,0247
3438,00;0,0247
3437,00;0,0247
3436,00;0,0247
3435,00;0,0247
3434,00;0,0248
3433,00;0,0248
3432,00;0,0248
3431,00;0,0248
3430,00;0,0248
3429,00;0,0248
3428,00;0,0248
3427,00;0,0248
3426,00;0,0248
3425,00;0,0248
3424,00;0,0248
3423,00;0,0248
3422,00;0,0248
3421,00;0,0248
3420,00;0,0248
3419,00;0,0249
3418,00;0,0249
3417,00;0,0249
3416,00;0,0249
3415,00;0,0249
3414,00;0,0249
3413,00;0,0248
3412,00;0,0248
3411,00;0,0248
3410,00;0,0248
3409,00;0,0248
3408,00;0,0248
3407,00;0,0248
3406,00;0,0248
3405,00;0,0248
3404,00;0,0248
3403,00;0,0248
3402,00;0,0249
3401,00;0,0249
3400,00;0,0250
3399,00;0,0250
3398,00;0,0250
3397,00;0,0250
3396,00;0,0250
3395,00;0,0249
3394,00;0,0249
3393,00;0,0249
3392,00;0,0249
3391,00;0,0249
3390,00;0,0249
3389,00;0,0250
3388,00;0,0250
3387,00;0,0250
3386,00;0,0250
3385,00;0,0250
3384,00;0,0250
3383,00;0,0250
3382,00;0,0250
3381,00;0,0250
3380,00;0,0250
3379,00;0,0250
3378,00;0,0250
3377,00;0,0250
3376,00;0,0250
3375,00;0,0250
3374,00;0,0249
3373,00;0,0249
3372,00;0,0249
3371,00;0,0249
3370,00;0,0250
3369,00;0,0250
3368,00;0,0250
3367,00;0,0251
3366,00;0,0251
3365,00;0,0251
3364,00;0,0251
3363,00;0,0250
3362,00;0,0250
3361,00;0,0250
3360,00;0,0250
3359,00;0,0250
3358,00;0,0250
3357,00;0,0250
3356,00;0,0250
3355,00;0,0250
3354,00;0,0251
3353,00;0,0251
3352,00;0,0251
3351,00;0,0252
3350,00;0,0252
3349,00;0,0252
3348,00;0,0252
3347,00;0,0252
3346,00;0,0252
3345,00;0,0252
3344,00;0,0252
3343,00;0,0252
3342,00;0,0253
3341,00;0,0253
3340,00;0,0253
3339,00;0,0252
3338,00;0,0252
3337,00;0,0252
3336,00;0,0252
3335,00;0,0252
3334,00;0,0252
3333,00;0,0252
3332,00;0,0252
3331,00;0,0252
3330,00;0,0253
3329,00;0,0253
3328,00;0,0253
3327,00;0,0253
3326,00;0,0253
3325,00;0,0253
3324,00;0,0252
3323,00;0,0252
3322,00;0,0252
3321,00;0,0252
3320,00;0,0252
3319,00;0,0252
3318,00;0,0252
3317,00;0,0253
3316,00;0,0253
3315,00;0,0253
3314,00;0,0254
3313,00;0,0254
3312,00;0,0254
3311,00;0,0254
3310,00;0,0253
3309,00;0,0253
3308,00;0,0253
3307,00;0,0253
3306,00;0,0253
3305,00;0,0253
3304,00;0,0254
3303,00;0,0254
3302,00;0,0254
3301,00;0,0254
3300,00;0,0253
3299,00;0,0253
3298,00;0,0254
3297,00;0,0254
3296,00;0,0254
3295,00;0,0254
3294,00;0,0254
3293,00;0,0254
3292,00;0,0254
3291,00;0,0254
3290,00;0,0254
3289,00;0,0254
3288,00;0,0255
3287,00;0,0255
3286,00;0,0255
3285,00;0,0255
3284,00;0,0255
3283,00;0,0255
3282,00;0,0255
3281,00;0,0255
3280,00;0,0255
3279,00;0,0255
3278,00;0,0255
3277,00;0,0255
3276,00;0,0254
3275,00;0,0254
3274,00;0,0254
3273,00;0,0254
3272,00;0,0254
3271,00;0,0254
3270,00;0,0255
3269,00;0,0255
3268,00;0,0255
3267,00;0,0256
3266,00;0,0256
3265,00;0,0256
3264,00;0,0256
3263,00;0,0256
3262,00;0,0256
3261,00;0,0256
3260,00;0,0256
3259,00;0,0256
3258,00;0,0255
3257,00;0,0255
3256,00;0,0255
3255,00;0,0255
3254,00;0,0255
3253,00;0,0255
3252,00;0,0256
3251,00;0,0256
3250,00;0,0256
3249,00;0,0255
3248,00;0,0255
3247,00;0,0255
3246,00;0,0256
3245,00;0,0256
3244,00;0,0256
3243,00;0,0256
3242,00;0,0256
3241,00;0,0256
3240,00;0,0255
3239,00;0,0255
3238,00;0,0256
3237,00;0,0256
3236,00;0,0256
3235,00;0,0257
3234,00;0,0257
3233,00;0,0257
3232,00;0,0256
3231,00;0,0256
3230,00;0,0256
3229,00;0,0256
3228,00;0,0256
3227,00;0,0257
3226,00;0,0257
3225,00;0,0257
3224,00;0,0257
3223,00;0,0257
3222,00;0,0257
3221,00;0,0257
3220,00;0,0257
3219,00;0,0257
3218,00;0,0257
3217,00;0,0257
3216,00;0,0257
3215,00;0,0257
3214,00;0,0257
3213,00;0,0257
3212,00;0,0257
3211,00;0,0257
3210,00;0,0257
3209,00;0,0257
3208,00;0,0257
3207,00;0,0257
3206,00;0,0257
3205,00;0,0257
3204,00;0,0258
3203,00;0,0258
3202,00;0,0258
3201,00;0,0258
3200,00;0,0257
3199,00;0,0257
3198,00;0,0257
3197,00;0,0257
3196,00;0,0257
3195,00;0,0257
3194,00;0,0258
3193,00;0,0258
3192,00;0,0258
3191,00;0,0258
3190,00;0,0258
3189,00;0,0258
3188,00;0,0258
3187,00;0,0258
3186,00;0,0258
3185,00;0,0258
3184,00;0,0258
3183,00;0,0258
3182,00;0,0257
3181,00;0,0258
3180,00;0,0258
3179,00;0,0258
3178,00;0,0258
3177,00;0,0258
3176,00;0,0258
3175,00;0,0258
3174,00;0,0258
3173,00;0,0259
3172,00;0,0259
3171,00;0,0260
3170,00;0,0260
3169,00;0,0260
3168,00;0,0260
3167,00;0,0260
3166,00;0,0260
3165,00;0,0260
3164,00;0,0260
3163,00;0,0260
3162,00;0,0260
3161,00;0,0260
3160,00;0,0259
3159,00;0,0259
3158,00;0,0259
3157,00;0,0259
3156,00;0,0258
3155,00;0,0258
3154,00;0,0258
3153,00;0,0259
3152,00;0,0259
3151,00;0,0259
3150,00;0,0260
3149,00;0,0259
3148,00;0,0259
3147,00;0,0259
3146,00;0,0259
3145,00;0,0259
3144,00;0,0259
3143,00;0,0260
3142,00;0,0260
3141,00;0,0260
3140,00;0,0259
3139,00;0,0259
3138,00;0,0259
3137,00;0,0259
3136,00;0,0260
3135,00;0,0260
3134,00;0,0260
3133,00;0,0260
3132,00;0,0260
3131,00;0,0260
3130,00;0,0260
3129,00;0,0261
3128,00;0,0261
3127,00;0,0261
3126,00;0,0261
3125,00;0,0261
3124,00;0,0261
3123,00;0,0260
3122,00;0,0260
3121,00;0,0260
3120,00;0,0260
3119,00;0,0260
3118,00;0,0259
3117,00;0,0259
3116,00;0,0259
3115,00;0,0260
3114,00;0,0260
3113,00;0,0261
3112,00;0,0261
3111,00;0,0261
3110,00;0,0261
3109,00;0,0261
3108,00;0,0262
3107,00;0,0262
3106,00;0,0262
3105,00;0,0262
3104,00;0,0262
3103,00;0,0262
3102,00;0,0262
3101,00;0,0262
3100,00;0,0262
3099,00;0,0263
3098,00;0,0263
3097,00;0,0263
3096,00;0,0263
3095,00;0,0263
3094,00;0,0263
3093,00;0,0263
3092,00;0,0263
3091,00;0,0263
3090,00;0,0263
3089,00;0,0263
3088,00;0,0263
3087,00;0,0263
3086,00;0,0263
3085,00;0,0263
3084,00;0,0262
3083,00;0,0263
3082,00;0,0263
3081,00;0,0263
3080,00;0,0262
3079,00;0,0262
3078,00;0,0262
3077,00;0,0263
3076,00;0,0263
3075,00;0,0264
3074,00;0,0264
3073,00;0,0264
3072,00;0,0264
3071,00;0,0263
3070,00;0,0263
3069,00;0,0263
3068,00;0,0263
3067,00;0,0263
3066,00;0,0263
3065,00;0,0263
3064,00;0,0263
3063,00;0,0263
3062,00;0,0263
3061,00;0,0264
3060,00;0,0264
3059,00;0,0264
3058,00;0,0264
3057,00;0,0264
3056,00;0,0263
3055,00;0,0263
3054,00;0,0263
3053,00;0,0263
3052,00;0,0263
3051,00;0,0264
3050,00;0,0264
3049,00;0,0264
3048,00;0,0264
3047,00;0,0264
3046,00;0,0264
3045,00;0,0264
3044,00;0,0264
3043,00;0,0264
3042,00;0,0265
3041,00;0,0265
3040,00;0,0266
3039,00;0,0266
3038,00;0,0266
3037,00;0,0266
3036,00;0,0266
3035,00;0,0266
3034,00;0,0266
3033,00;0,0267
3032,00;0,0267
3031,00;0,0267
3030,00;0,0267
3029,00;0,0267
3028,00;0,0267
3027,00;0,0266
3026,00;0,0266
3025,00;0,0267
3024,00;0,0267
3023,00;0,0267
3022,00;0,0267
3021,00;0,0267
3020,00;0,0267
3019,00;0,0267
3018,00;0,0267
3017,00;0,0266
3016,00;0,0266
3015,00;0,0266
3014,00;0,0266
3013,00;0,0266
3012,00;0,0266
3011,00;0,0266
3010,00;0,0266
3009,00;0,0267
3008,00;0,0267
3007,00;0,0267
3006,00;0,0267
3005,00;0,0267
3004,00;0,0267
3003,00;0,0267
3002,00;0,0267
3001,00;0,0267
3000,00;0,0267
2999,00;0,0267
2998,00;0,0267
2997,00;0,0267
2996,00;0,0267
2995,00;0,0267
2994,00;0,0267
2993,00;0,0267
2992,00;0,0267
2991,00;0,0267
2990,00;0,0267
2989,00;0,0267
2988,00;0,0267
2987,00;0,0267
2986,00;0,0267
2985,00;0,0267
2984,00;0,0266
2983,00;0,0266
2982,00;0,0265
2981,00;0,0265
2980,00;0,0265
2979,00;0,0265
2978,00;0,0265
2977,00;0,0265
2976,00;0,0265
2975,00;0,0265
2974,00;0,0266
2973,00;0,0266
2972,00;0,0267
2971,00;0,0267
2970,00;0,0267
2969,00;0,0266
2968,00;0,0265
2967,00;0,0264
2966,00;0,0263
2965,00;0,0263
2964,00;0,0262
2963,00;0,0262
2962,00;0,0262
2961,00;0,0262
2960,00;0,0261
2959,00;0,0261
2958,00;0,0262
2957,00;0,0262
2956,00;0,0262
2955,00;0,0262
2954,00;0,0262
2953,00;0,0262
2952,00;0,0262
2951,00;0,0263
2950,00;0,0263
2949,00;0,0263
2948,00;0,0263
2947,00;0,0263
2946,00;0,0263
2945,00;0,0262
2944,00;0,0262
2943,00;0,0262
2942,00;0,0261
2941,00;0,0261
2940,00;0,0260
2939,00;0,0259
2938,00;0,0258
2937,00;0,0257
2936,00;0,0256
2935,00;0,0256
2934,00;0,0255
2933,00;0,0254
2932,00;0,0253
2931,00;0,0253
2930,00;0,0252
2929,00;0,0252
2928,00;0,0252
2927,00;0,0251
2926,00;0,0251
2925,00;0,0251
2924,00;0,0251
2923,00;0,0252
2922,00;0,0252
2921,00;0,0253
2920,00;0,0254
2919,00;0,0255
2918,00;0,0256
2917,00;0,0256
2916,00;0,0257
2915,00;0,0258
2914,00;0,0259
2913,00;0,0260
2912,00;0,0260
2911,00;0,0261
2910,00;0,0262
2909,00;0,0262
2908,00;0,0263
2907,00;0,0263
2906,00;0,0264
2905,00;0,0264
2904,00;0,0265
2903,00;0,0265
2902,00;0,0265
2901,00;0,0265
2900,00;0,0265
2899,00;0,0265
2898,00;0,0265
2897,00;0,0265
2896,00;0,0265
2895,00;0,0266
2894,00;0,0266
2893,00;0,0266
2892,00;0,0267
2891,00;0,0268
2890,00;0,0268
2889,00;0,0269
2888,00;0,0269
2887,00;0,0269
2886,00;0,0269
2885,00;0,0269
2884,00;0,0269
2883,00;0,0269
2882,00;0,0268
2881,00;0,0268
2880,00;0,0268
2879,00;0,0268
2878,00;0,0268
2877,00;0,0268
2876,00;0,0268
2875,00;0,0268
2874,00;0,0268
2873,00;0,0268
2872,00;0,0268
2871,00;0,0268
2870,00;0,0268
2869,00;0,0268
2868,00;0,0268
2867,00;0,0268
2866,00;0,0268
2865,00;0,0268
2864,00;0,0267
2863,00;0,0267
2862,00;0,0266
2861,00;0,0265
2860,00;0,0264
2859,00;0,0263
2858,00;0,0263
2857,00;0,0262
2856,00;0,0262
2855,00;0,0263
2854,00;0,0263
2853,00;0,0263
2852,00;0,0264
2851,00;0,0264
2850,00;0,0265
2849,00;0,0266
2848,00;0,0268
2847,00;0,0269
2846,00;0,0270
2845,00;0,0271
2844,00;0,0272
2843,00;0,0272
2842,00;0,0272
2841,00;0,0272
2840,00;0,0273
2839,00;0,0273
2838,00;0,0273
2837,00;0,0273
2836,00;0,0274
2835,00;0,0274
2834,00;0,0274
2833,00;0,0274
2832,00;0,0274
2831,00;0,0274
2830,00;0,0274
2829,00;0,0274
2828,00;0,0274
2827,00;0,0274
2826,00;0,0274
2825,00;0,0274
2824,00;0,0274
2823,00;0,0274
2822,00;0,0274
2821,00;0,0274
2820,00;0,0274
2819,00;0,0274
2818,00;0,0275
2817,00;0,0275
2816,00;0,0275
2815,00;0,0275
2814,00;0,0275
2813,00;0,0275
2812,00;0,0275
2811,00;0,0275
2810,00;0,0275
2809,00;0,0275
2808,00;0,0275
2807,00;0,0275
2806,00;0,0275
2805,00;0,0276
2804,00;0,0276
2803,00;0,0276
2802,00;0,0276
2801,00;0,0276
2800,00;0,0276
2799,00;0,0276
2798,00;0,0276
2797,00;0,0276
2796,00;0,0276
2795,00;0,0276
2794,00;0,0276
2793,00;0,0276
2792,00;0,0276
2791,00;0,0276
2790,00;0,0277
2789,00;0,0277
2788,00;0,0277
2787,00;0,0277
2786,00;0,0277
2785,00;0,0277
2784,00;0,0277
2783,00;0,0277
2782,00;0,0277
2781,00;0,0277
2780,00;0,0277
2779,00;0,0277
2778,00;0,0277
2777,00;0,0277
2776,00;0,0277
2775,00;0,0277
2774,00;0,0277
2773,00;0,0277
2772,00;0,0277
2771,00;0,0277
2770,00;0,0277
2769,00;0,0277
2768,00;0,0277
2767,00;0,0277
2766,00;0,0277
2765,00;0,0278
2764,00;0,0278
2763,00;0,0278
2762,00;0,0278
2761,00;0,0278
2760,00;0,0278
2759,00;0,0278
2758,00;0,0278
2757,00;0,0278
2756,00;0,0278
2755,00;0,0278
2754,00;0,0278
2753,00;0,0278
2752,00;0,0278
2751,00;0,0278
2750,00;0,0278
2749,00;0,0278
2748,00;0,0278
2747,00;0,0278
2746,00;0,0278
2745,00;0,0278
2744,00;0,0279
2743,00;0,0279
2742,00;0,0279
2741,00;0,0279
2740,00;0,0279
2739,00;0,0279
2738,00;0,0279
2737,00;0,0279
2736,00;0,0279
2735,00;0,0279
2734,00;0,0279
2733,00;0,0279
2732,00;0,0279
2731,00;0,0279
2730,00;0,0279
2729,00;0,0279
2728,00;0,0280
2727,00;0,0280
2726,00;0,0280
2725,00;0,0279
2724,00;0,0280
2723,00;0,0280
2722,00;0,0280
2721,00;0,0280
2720,00;0,0280
2719,00;0,0280
2718,00;0,0279
2717,00;0,0279
2716,00;0,0279
2715,00;0,0279
2714,00;0,0280
2713,00;0,0280
2712,00;0,0280
2711,00;0,0280
2710,00;0,0280
2709,00;0,0280
2708,00;0,0280
2707,00;0,0280
2706,00;0,0280
2705,00;0,0281
2704,00;0,0281
2703,00;0,0281
2702,00;0,0281
2701,00;0,0281
2700,00;0,0281
2699,00;0,0281
2698,00;0,0281
2697,00;0,0281
2696,00;0,0281
2695,00;0,0281
2694,00;0,0281
2693,00;0,0281
2692,00;0,0281
2691,00;0,0280
2690,00;0,0280
2689,00;0,0280
2688,00;0,0281
2687,00;0,0281
2686,00;0,0281
2685,00;0,0282
2684,00;0,0282
2683,00;0,0282
2682,00;0,0282
2681,00;0,0282
2680,00;0,0282
2679,00;0,0282
2678,00;0,0282
2677,00;0,0282
2676,00;0,0282
2675,00;0,0282
2674,00;0,0282
2673,00;0,0283
2672,00;0,0283
2671,00;0,0283
2670,00;0,0283
2669,00;0,0283
2668,00;0,0283
2667,00;0,0283
2666,00;0,0283
2665,00;0,0284
2664,00;0,0284
2663,00;0,0285
2662,00;0,0286
2661,00;0,0286
2660,00;0,0287
2659,00;0,0287
2658,00;0,0287
2657,00;0,0287
2656,00;0,0288
2655,00;0,0288
2654,00;0,0288
2653,00;0,0288
2652,00;0,0288
2651,00;0,0288
2650,00;0,0288
2649,00;0,0288
2648,00;0,0288
2647,00;0,0288
2646,00;0,0289
2645,00;0,0289
2644,00;0,0289
2643,00;0,0289
2642,00;0,0288
2641,00;0,0288
2640,00;0,0288
2639,00;0,0288
2638,00;0,0287
2637,00;0,0287
2636,00;0,0287
2635,00;0,0287
2634,00;0,0287
2633,00;0,0287
2632,00;0,0287
2631,00;0,0287
2630,00;0,0287
2629,00;0,0287
2628,00;0,0288
2627,00;0,0288
2626,00;0,0288
2625,00;0,0287
2624,00;0,0287
2623,00;0,0287
2622,00;0,0287
2621,00;0,0287
2620,00;0,0287
2619,00;0,0287
2618,00;0,0286
2617,00;0,0286
2616,00;0,0286
2615,00;0,0285
2614,00;0,0285
2613,00;0,0285
2612,00;0,0285
2611,00;0,0285
2610,00;0,0285
2609,00;0,0286
2608,00;0,0286
2607,00;0,0286
2606,00;0,0286
2605,00;0,0286
2604,00;0,0286
2603,00;0,0287
2602,00;0,0287
2601,00;0,0287
2600,00;0,0287
2599,00;0,0287
2598,00;0,0286
2597,00;0,0286
2596,00;0,0286
2595,00;0,0286
2594,00;0,0286
2593,00;0,0286
2592,00;0,0286
2591,00;0,0286
2590,00;0,0286
2589,00;0,0286
2588,00;0,0286
2587,00;0,0286
2586,00;0,0285
2585,00;0,0285
2584,00;0,0285
2583,00;0,0284
2582,00;0,0284
2581,00;0,0285
2580,00;0,0285
2579,00;0,0285
2578,00;0,0285
2577,00;0,0285
2576,00;0,0284
2575,00;0,0284
2574,00;0,0285
2573,00;0,0285
2572,00;0,0285
2571,00;0,0285
2570,00;0,0285
2569,00;0,0284
2568,00;0,0284
2567,00;0,0284
2566,00;0,0283
2565,00;0,0283
2564,00;0,0283
2563,00;0,0283
2562,00;0,0284
2561,00;0,0285
2560,00;0,0285
2559,00;0,0286
2558,00;0,0286
2557,00;0,0285
2556,00;0,0285
2555,00;0,0285
2554,00;0,0284
2553,00;0,0284
2552,00;0,0284
2551,00;0,0284
2550,00;0,0284
2549,00;0,0284
2548,00;0,0285
2547,00;0,0285
2546,00;0,0285
2545,00;0,0285
2544,00;0,0284
2543,00;0,0285
2542,00;0,0285
2541,00;0,0285
2540,00;0,0285
2539,00;0,0285
2538,00;0,0285
2537,00;0,0285
2536,00;0,0285
2535,00;0,0285
2534,00;0,0285
2533,00;0,0285
2532,00;0,0285
2531,00;0,0285
2530,00;0,0285
2529,00;0,0285
2528,00;0,0285
2527,00;0,0285
2526,00;0,0286
2525,00;0,0286
2524,00;0,0285
2523,00;0,0285
2522,00;0,0285
2521,00;0,0285
2520,00;0,0285
2519,00;0,0285
2518,00;0,0285
2517,00;0,0285
2516,00;0,0286
2515,00;0,0286
2514,00;0,0286
2513,00;0,0286
2512,00;0,0285
2511,00;0,0285
2510,00;0,0284
2509,00;0,0284
2508,00;0,0284
2507,00;0,0284
2506,00;0,0284
2505,00;0,0284
2504,00;0,0285
2503,00;0,0285
2502,00;0,0286
2501,00;0,0286
2500,00;0,0287
2499,00;0,0287
2498,00;0,0286
2497,00;0,0286
2496,00;0,0287
2495,00;0,0287
2494,00;0,0288
2493,00;0,0288
2492,00;0,0288
2491,00;0,0288
2490,00;0,0287
2489,00;0,0287
2488,00;0,0286
2487,00;0,0286
2486,00;0,0285
2485,00;0,0286
2484,00;0,0287
2483,00;0,0288
2482,00;0,0288
2481,00;0,0289
2480,00;0,0289
2479,00;0,0288
2478,00;0,0287
2477,00;0,0286
2476,00;0,0286
2475,00;0,0286
2474,00;0,0287
2473,00;0,0287
2472,00;0,0288
2471,00;0,0287
2470,00;0,0287
2469,00;0,0287
2468,00;0,0288
2467,00;0,0288
2466,00;0,0288
2465,00;0,0288
2464,00;0,0288
2463,00;0,0288
2462,00;0,0289
2461,00;0,0290
2460,00;0,0291
2459,00;0,0291
2458,00;0,0292
2457,00;0,0291
2456,00;0,0291
2455,00;0,0291
2454,00;0,0291
2453,00;0,0291
2452,00;0,0291
2451,00;0,0290
2450,00;0,0290
2449,00;0,0291
2448,00;0,0291
2447,00;0,0291
2446,00;0,0291
2445,00;0,0291
2444,00;0,0291
2443,00;0,0291
2442,00;0,0292
2441,00;0,0292
2440,00;0,0291
2439,00;0,0291
2438,00;0,0290
2437,00;0,0290
2436,00;0,0290
2435,00;0,0290
2434,00;0,0290
2433,00;0,0291
2432,00;0,0292
2431,00;0,0293
2430,00;0,0293
2429,00;0,0292
2428,00;0,0292
2427,00;0,0291
2426,00;0,0290
2425,00;0,0289
2424,00;0,0289
2423,00;0,0289
2422,00;0,0289
2421,00;0,0290
2420,00;0,0291
2419,00;0,0291
2418,00;0,0291
2417,00;0,0291
2416,00;0,0291
2415,00;0,0291
2414,00;0,0292
2413,00;0,0292
2412,00;0,0292
2411,00;0,0292
2410,00;0,0292
2409,00;0,0292
2408,00;0,0292
2407,00;0,0291
2406,00;0,0291
2405,00;0,0290
2404,00;0,0290
2403,00;0,0290
2402,00;0,0291
2401,00;0,0291
2400,00;0,0291
2399,00;0,0291
2398,00;0,0291
2397,00;0,0291
2396,00;0,0290
2395,00;0,0291
2394,00;0,0291
2393,00;0,0291
2392,00;0,0292
2391,00;0,0292
2390,00;0,0292
2389,00;0,0292
2388,00;0,0292
2387,00;0,0292
2386,00;0,0292
2385,00;0,0291
2384,00;0,0292
2383,00;0,0292
2382,00;0,0292
2381,00;0,0292
2380,00;0,0292
2379,00;0,0292
2378,00;0,0292
2377,00;0,0292
2376,00;0,0293
2375,00;0,0294
2374,00;0,0295
2373,00;0,0294
2372,00;0,0293
2371,00;0,0292
2370,00;0,0292
2369,00;0,0293
2368,00;0,0293
2367,00;0,0294
2366,00;0,0296
2365,00;0,0297
2364,00;0,0298
2363,00;0,0297
2362,00;0,0296
2361,00;0,0296
2360,00;0,0296
2359,00;0,0295
2358,00;0,0294
2357,00;0,0293
2356,00;0,0292
2355,00;0,0291
2354,00;0,0294
2353,00;0,0300
2352,00;0,0305
2351,00;0,0306
2350,00;0,0302
2349,00;0,0297
2348,00;0,0295
2347,00;0,0297
2346,00;0,0301
2345,00;0,0302
2344,00;0,0302
2343,00;0,0301
2342,00;0,0301
2341,00;0,0300
2340,00;0,0300
2339,00;0,0301
2338,00;0,0302
2337,00;0,0302
2336,00;0,0302
2335,00;0,0301
2334,00;0,0300
2333,00;0,0299
2332,00;0,0300
2331,00;0,0301
2330,00;0,0302
2329,00;0,0303
2328,00;0,0304
2327,00;0,0307
2326,00;0,0310
2325,00;0,0313
2324,00;0,0316
2323,00;0,0316
2322,00;0,0315
2321,00;0,0314
2320,00;0,0313
2319,00;0,0312
2318,00;0,0311
2317,00;0,0310
2316,00;0,0309
2315,00;0,0308
2314,00;0,0308
2313,00;0,0308
2312,00;0,0308
2311,00;0,0308
2310,00;0,0308
2309,00;0,0308
2308,00;0,0308
2307,00;0,0309
2306,00;0,0309
2305,00;0,0309
2304,00;0,0309
2303,00;0,0308
2302,00;0,0308
2301,00;0,0308
2300,00;0,0308
2299,00;0,0309
2298,00;0,0310
2297,00;0,0311
2296,00;0,0312
2295,00;0,0312
2294,00;0,0313
2293,00;0,0314
2292,00;0,0314
2291,00;0,0315
2290,00;0,0314
2289,00;0,0314
2288,00;0,0315
2287,00;0,0316
2286,00;0,0317
2285,00;0,0317
2284,00;0,0316
2283,00;0,0315
2282,00;0,0314
2281,00;0,0313
2280,00;0,0313
2279,00;0,0312
2278,00;0,0311
2277,00;0,0311
2276,00;0,0312
2275,00;0,0312
2274,00;0,0312
2273,00;0,0311
2272,00;0,0311
2271,00;0,0311
2270,00;0,0311
2269,00;0,0311
2268,00;0,0311
2267,00;0,0312
2266,00;0,0311
2265,00;0,0311
2264,00;0,0310
2263,00;0,0309
2262,00;0,0309
2261,00;0,0309
2260,00;0,0309
2259,00;0,0309
2258,00;0,0310
2257,00;0,0311
2256,00;0,0311
2255,00;0,0310
2254,00;0,0309
2253,00;0,0308
2252,00;0,0308
2251,00;0,0307
2250,00;0,0307
2249,00;0,0307
2248,00;0,0307
2247,00;0,0307
2246,00;0,0307
2245,00;0,0307
2244,00;0,0306
2243,00;0,0307
2242,00;0,0307
2241,00;0,0308
2240,00;0,0309
2239,00;0,0310
2238,00;0,0311
2237,00;0,0312
2236,00;0,0311
2235,00;0,0310
2234,00;0,0309
2233,00;0,0309
2232,00;0,0311
2231,00;0,0312
2230,00;0,0313
2229,00;0,0313
2228,00;0,0313
2227,00;0,0314
2226,00;0,0315
2225,00;0,0315
2224,00;0,0314
2223,00;0,0313
2222,00;0,0313
2221,00;0,0312
2220,00;0,0312
2219,00;0,0312
2218,00;0,0311
2217,00;0,0310
2216,00;0,0309
2215,00;0,0310
2214,00;0,0310
2213,00;0,0311
2212,00;0,0311
2211,00;0,0311
2210,00;0,0312
2209,00;0,0313
2208,00;0,0314
2207,00;0,0315
2206,00;0,0315
2205,00;0,0316
2204,00;0,0316
2203,00;0,0316
2202,00;0,0315
2201,00;0,0314
2200,00;0,0313
2199,00;0,0314
2198,00;0,0315
2197,00;0,0316
2196,00;0,0316
2195,00;0,0316
2194,00;0,0316
2193,00;0,0316
2192,00;0,0316
2191,00;0,0317
2190,00;0,0317
2189,00;0,0316
2188,00;0,0316
2187,00;0,0316
2186,00;0,0316
2185,00;0,0315
2184,00;0,0313
2183,00;0,0311
2182,00;0,0308
2181,00;0,0307
2180,00;0,0308
2179,00;0,0311
2178,00;0,0313
2177,00;0,0314
2176,00;0,0312
2175,00;0,0310
2174,00;0,0308
2173,00;0,0308
2172,00;0,0310
2171,00;0,0312
2170,00;0,0315
2169,00;0,0320
2168,00;0,0324
2167,00;0,0327
2166,00;0,0329
2165,00;0,0329
2164,00;0,0329
2163,00;0,0331
2162,00;0,0332
2161,00;0,0329
2160,00;0,0321
2159,00;0,0310
2158,00;0,0299
2157,00;0,0291
2156,00;0,0287
2155,00;0,0287
2154,00;0,0287
2153,00;0,0287
2152,00;0,0287
2151,00;0,0288
2150,00;0,0290
2149,00;0,0292
2148,00;0,0293
2147,00;0,0294
2146,00;0,0295
2145,00;0,0297
2144,00;0,0298
2143,00;0,0298
2142,00;0,0297
2141,00;0,0297
2140,00;0,0297
2139,00;0,0298
2138,00;0,0299
2137,00;0,0300
2136,00;0,0300
2135,00;0,0298
2134,00;0,0295
2133,00;0,0293
2132,00;0,0292
2131,00;0,0293
2130,00;0,0294
2129,00;0,0297
2128,00;0,0300
2127,00;0,0303
2126,00;0,0305
2125,00;0,0306
2124,00;0,0307
2123,00;0,0307
2122,00;0,0308
2121,00;0,0309
2120,00;0,0309
2119,00;0,0311
2118,00;0,0312
2117,00;0,0314
2116,00;0,0315
2115,00;0,0317
2114,00;0,0317
2113,00;0,0317
2112,00;0,0317
2111,00;0,0317
2110,00;0,0318
2109,00;0,0317
2108,00;0,0317
2107,00;0,0317
2106,00;0,0317
2105,00;0,0317
2104,00;0,0318
2103,00;0,0319
2102,00;0,0319
2101,00;0,0320
2100,00;0,0319
2099,00;0,0319
2098,00;0,0319
2097,00;0,0318
2096,00;0,0316
2095,00;0,0314
2094,00;0,0313
2093,00;0,0313
2092,00;0,0314
2091,00;0,0316
2090,00;0,0317
2089,00;0,0318
2088,00;0,0318
2087,00;0,0318
2086,00;0,0319
2085,00;0,0319
2084,00;0,0319
2083,00;0,0319
2082,00;0,0318
2081,00;0,0319
2080,00;0,0320
2079,00;0,0322
2078,00;0,0323
2077,00;0,0323
2076,00;0,0322
2075,00;0,0322
2074,00;0,0321
2073,00;0,0321
2072,00;0,0322
2071,00;0,0322
2070,00;0,0322
2069,00;0,0323
2068,00;0,0323
2067,00;0,0323
2066,00;0,0323
2065,00;0,0324
2064,00;0,0325
2063,00;0,0325
2062,00;0,0324
2061,00;0,0324
2060,00;0,0323
2059,00;0,0324
2058,00;0,0326
2057,00;0,0327
2056,00;0,0328
2055,00;0,0327
2054,00;0,0327
2053,00;0,0329
2052,00;0,0333
2051,00;0,0338
2050,00;0,0340
2049,00;0,0338
2048,00;0,0333
2047,00;0,0329
2046,00;0,0325
2045,00;0,0323
2044,00;0,0322
2043,00;0,0323
2042,00;0,0323
2041,00;0,0323
2040,00;0,0322
2039,00;0,0323
2038,00;0,0326
2037,00;0,0330
2036,00;0,0333
2035,00;0,0335
2034,00;0,0334
2033,00;0,0332
2032,00;0,0328
2031,00;0,0325
2030,00;0,0322
2029,00;0,0321
2028,00;0,0321
2027,00;0,0322
2026,00;0,0322
2025,00;0,0322
2024,00;0,0320
2023,00;0,0318
2022,00;0,0317
2021,00;0,0316
2020,00;0,0316
2019,00;0,0317
2018,00;0,0319
2017,00;0,0320
2016,00;0,0321
2015,00;0,0321
2014,00;0,0321
2013,00;0,0321
2012,00;0,0322
2011,00;0,0324
2010,00;0,0325
2009,00;0,0324
2008,00;0,0321
2007,00;0,0317
2006,00;0,0314
2005,00;0,0313
2004,00;0,0313
2003,00;0,0314
2002,00;0,0315
2001,00;0,0316
2000,00;0,0317
1999,00;0,0318
1998,00;0,0317
1997,00;0,0317
1996,00;0,0316
1995,00;0,0316
1994,00;0,0316
1993,00;0,0317
1992,00;0,0319
1991,00;0,0322
1990,00;0,0325
1989,00;0,0326
1988,00;0,0327
1987,00;0,0327
1986,00;0,0327
1985,00;0,0329
1984,00;0,0331
1983,00;0,0335
1982,00;0,0339
1981,00;0,0343
1980,00;0,0342
1979,00;0,0338
1978,00;0,0330
1977,00;0,0321
1976,00;0,0316
1975,00;0,0314
1974,00;0,0315
1973,00;0,0318
1972,00;0,0320
1971,00;0,0320
1970,00;0,0320
1969,00;0,0319
1968,00;0,0319
1967,00;0,0318
1966,00;0,0317
1965,00;0,0316
1964,00;0,0316
1963,00;0,0316
1962,00;0,0317
1961,00;0,0318
1960,00;0,0318
1959,00;0,0317
1958,00;0,0315
1957,00;0,0314
1956,00;0,0316
1955,00;0,0318
1954,00;0,0321
1953,00;0,0322
1952,00;0,0323
1951,00;0,0323
1950,00;0,0322
1949,00;0,0321
1948,00;0,0321
1947,00;0,0321
1946,00;0,0323
1945,00;0,0324
1944,00;0,0325
1943,00;0,0325
1942,00;0,0324
1941,00;0,0324
1940,00;0,0324
1939,00;0,0323
1938,00;0,0323
1937,00;0,0322
1936,00;0,0321
1935,00;0,0321
1934,00;0,0320
1933,00;0,0321
1932,00;0,0322
1931,00;0,0323
1930,00;0,0323
1929,00;0,0323
1928,00;0,0323
1927,00;0,0323
1926,00;0,0323
1925,00;0,0323
1924,00;0,0325
1923,00;0,0327
1922,00;0,0329
1921,00;0,0330
1920,00;0,0331
1919,00;0,0330
1918,00;0,0330
1917,00;0,0330
1916,00;0,0331
1915,00;0,0331
1914,00;0,0330
1913,00;0,0329
1912,00;0,0329
1911,00;0,0329
1910,00;0,0329
1909,00;0,0329
1908,00;0,0329
1907,00;0,0330
1906,00;0,0331
1905,00;0,0331
1904,00;0,0332
1903,00;0,0332
1902,00;0,0332
1901,00;0,0331
1900,00;0,0330
1899,00;0,0330
1898,00;0,0329
1897,00;0,0329
1896,00;0,0330
1895,00;0,0330
1894,00;0,0331
1893,00;0,0331
1892,00;0,0331
1891,00;0,0331
1890,00;0,0331
1889,00;0,0331
1888,00;0,0332
1887,00;0,0333
1886,00;0,0333
1885,00;0,0332
1884,00;0,0332
1883,00;0,0333
1882,00;0,0333
1881,00;0,0334
1880,00;0,0334
1879,00;0,0335
1878,00;0,0335
1877,00;0,0335
1876,00;0,0334
1875,00;0,0334
1874,00;0,0334
1873,00;0,0335
1872,00;0,0335
1871,00;0,0335
1870,00;0,0334
1869,00;0,0334
1868,00;0,0334
1867,00;0,0334
1866,00;0,0334
1865,00;0,0334
1864,00;0,0334
1863,00;0,0335
1862,00;0,0336
1861,00;0,0336
1860,00;0,0337
1859,00;0,0338
1858,00;0,0338
1857,00;0,0338
1856,00;0,0338
1855,00;0,0337
1854,00;0,0337
1853,00;0,0337
1852,00;0,0337
1851,00;0,0337
1850,00;0,0337
1849,00;0,0337
1848,00;0,0337
1847,00;0,0337
1846,00;0,0337
1845,00;0,0337
1844,00;0,0338
1843,00;0,0339
1842,00;0,0339
1841,00;0,0339
1840,00;0,0339
1839,00;0,0339
1838,00;0,0339
1837,00;0,0339
1836,00;0,0339
1835,00;0,0339
1834,00;0,0339
1833,00;0,0339
1832,00;0,0339
1831,00;0,0339
1830,00;0,0339
1829,00;0,0340
1828,00;0,0340
1827,00;0,0340
1826,00;0,0341
1825,00;0,0341
1824,00;0,0341
1823,00;0,0341
1822,00;0,0341
1821,00;0,0340
1820,00;0,0340
1819,00;0,0340
1818,00;0,0339
1817,00;0,0339
1816,00;0,0339
1815,00;0,0339
1814,00;0,0340
1813,00;0,0341
1812,00;0,0342
1811,00;0,0342
1810,00;0,0343
1809,00;0,0343
1808,00;0,0343
1807,00;0,0344
1806,00;0,0345
1805,00;0,0345
1804,00;0,0346
1803,00;0,0346
1802,00;0,0347
1801,00;0,0346
1800,00;0,0346
1799,00;0,0347
1798,00;0,0347
1797,00;0,0346
1796,00;0,0346
1795,00;0,0347
1794,00;0,0347
1793,00;0,0347
1792,00;0,0347
1791,00;0,0348
1790,00;0,0348
1789,00;0,0348
1788,00;0,0349
1787,00;0,0349
1786,00;0,0349
1785,00;0,0349
1784,00;0,0349
1783,00;0,0349
1782,00;0,0350
1781,00;0,0351
1780,00;0,0352
1779,00;0,0352
1778,00;0,0352
1777,00;0,0351
1776,00;0,0351
1775,00;0,0351
1774,00;0,0351
1773,00;0,0352
1772,00;0,0353
1771,00;0,0355
1770,00;0,0355
1769,00;0,0355
1768,00;0,0355
1767,00;0,0356
1766,00;0,0357
1765,00;0,0357
1764,00;0,0358
1763,00;0,0359
1762,00;0,0361
1761,00;0,0362
1760,00;0,0362
1759,00;0,0362
1758,00;0,0362
1757,00;0,0363
1756,00;0,0363
1755,00;0,0364
1754,00;0,0364
1753,00;0,0365
1752,00;0,0365
1751,00;0,0365
1750,00;0,0366
1749,00;0,0366
1748,00;0,0367
1747,00;0,0367
1746,00;0,0368
1745,00;0,0369
1744,00;0,0370
1743,00;0,0370
1742,00;0,0371
1741,00;0,0371
1740,00;0,0372
1739,00;0,0372
1738,00;0,0372
1737,00;0,0372
1736,00;0,0371
1735,00;0,0370
1734,00;0,0369
1733,00;0,0369
1732,00;0,0368
1731,00;0,0368
1730,00;0,0368
1729,00;0,0368
1728,00;0,0369
1727,00;0,0369
1726,00;0,0369
1725,00;0,0368
1724,00;0,0368
1723,00;0,0368
1722,00;0,0368
1721,00;0,0368
1720,00;0,0367
1719,00;0,0367
1718,00;0,0366
1717,00;0,0366
1716,00;0,0365
1715,00;0,0364
1714,00;0,0364
1713,00;0,0363
1712,00;0,0363
1711,00;0,0362
1710,00;0,0362
1709,00;0,0361
1708,00;0,0360
1707,00;0,0360
1706,00;0,0360
1705,00;0,0359
1704,00;0,0359
1703,00;0,0359
1702,00;0,0360
1701,00;0,0359
1700,00;0,0359
1699,00;0,0359
1698,00;0,0359
1697,00;0,0359
1696,00;0,0359
1695,00;0,0360
1694,00;0,0360
1693,00;0,0360
1692,00;0,0360
1691,00;0,0360
1690,00;0,0361
1689,00;0,0361
1688,00;0,0361
1687,00;0,0360
1686,00;0,0361
1685,00;0,0361
1684,00;0,0361
1683,00;0,0361
1682,00;0,0361
1681,00;0,0361
1680,00;0,0361
1679,00;0,0362
1678,00;0,0362
1677,00;0,0362
1676,00;0,0363
1675,00;0,0363
1674,00;0,0363
1673,00;0,0363
1672,00;0,0363
1671,00;0,0363
1670,00;0,0362
1669,00;0,0363
1668,00;0,0363
1667,00;0,0363
1666,00;0,0363
1665,00;0,0363
1664,00;0,0363
1663,00;0,0364
1662,00;0,0364
1661,00;0,0364
1660,00;0,0365
1659,00;0,0365
1658,00;0,0365
1657,00;0,0365
1656,00;0,0364
1655,00;0,0364
1654,00;0,0364
1653,00;0,0364
1652,00;0,0365
1651,00;0,0366
1650,00;0,0365
1649,00;0,0366
1648,00;0,0366
1647,00;0,0366
1646,00;0,0366
1645,00;0,0367
1644,00;0,0367
1643,00;0,0367
1642,00;0,0367
1641,00;0,0366
1640,00;0,0367
1639,00;0,0367
1638,00;0,0367
1637,00;0,0368
1636,00;0,0368
1635,00;0,0368
1634,00;0,0368
1633,00;0,0368
1632,00;0,0368
1631,00;0,0369
1630,00;0,0369
1629,00;0,0370
1628,00;0,0370
1627,00;0,0370
1626,00;0,0370
1625,00;0,0370
1624,00;0,0370
1623,00;0,0370
1622,00;0,0370
1621,00;0,0370
1620,00;0,0371
1619,00;0,0371
1618,00;0,0371
1617,00;0,0371
1616,00;0,0371
1615,00;0,0371
1614,00;0,0371
1613,00;0,0371
1612,00;0,0372
1611,00;0,0372
1610,00;0,0372
1609,00;0,0372
1608,00;0,0372
1607,00;0,0372
1606,00;0,0372
1605,00;0,0372
1604,00;0,0372
1603,00;0,0372
1602,00;0,0372
1601,00;0,0373
1600,00;0,0373
1599,00;0,0373
1598,00;0,0373
1597,00;0,0373
1596,00;0,0373
1595,00;0,0373
1594,00;0,0373
1593,00;0,0374
1592,00;0,0374
1591,00;0,0374
1590,00;0,0375
1589,00;0,0375
1588,00;0,0375
1587,00;0,0376
1586,00;0,0376
1585,00;0,0376
1584,00;0,0376
1583,00;0,0376
1582,00;0,0376
1581,00;0,0376
1580,00;0,0376
1579,00;0,0376
1578,00;0,0376
1577,00;0,0376
1576,00;0,0376
1575,00;0,0376
1574,00;0,0376
1573,00;0,0376
1572,00;0,0377
1571,00;0,0377
1570,00;0,0378
1569,00;0,0378
1568,00;0,0379
1567,00;0,0378
1566,00;0,0378
1565,00;0,0378
1564,00;0,0378
1563,00;0,0377
1562,00;0,0378
1561,00;0,0379
1560,00;0,0379
1559,00;0,0379
1558,00;0,0378
1557,00;0,0378
1556,00;0,0379
1555,00;0,0379
1554,00;0,0379
1553,00;0,0379
1552,00;0,0379
1551,00;0,0379
1550,00;0,0379
1549,00;0,0379
1548,00;0,0380
1547,00;0,0380
1546,00;0,0380
1545,00;0,0381
1544,00;0,0381
1543,00;0,0381
1542,00;0,0381
1541,00;0,0381
1540,00;0,0381
1539,00;0,0381
1538,00;0,0382
1537,00;0,0382
1536,00;0,0382
1535,00;0,0382
1534,00;0,0382
1533,00;0,0383
1532,00;0,0383
1531,00;0,0383
1530,00;0,0384
1529,00;0,0384
1528,00;0,0383
1527,00;0,0383
1526,00;0,0383
1525,00;0,0383
1524,00;0,0384
1523,00;0,0384
1522,00;0,0384
1521,00;0,0383
1520,00;0,0383
1519,00;0,0384
1518,00;0,0384
1517,00;0,0385
1516,00;0,0384
1515,00;0,0385
1514,00;0,0385
1513,00;0,0385
1512,00;0,0385
1511,00;0,0386
1510,00;0,0386
1509,00;0,0386
1508,00;0,0386
1507,00;0,0385
1506,00;0,0385
1505,00;0,0386
1504,00;0,0386
1503,00;0,0387
1502,00;0,0388
1501,00;0,0389
1500,00;0,0390
1499,00;0,0390
1498,00;0,0390
1497,00;0,0389
1496,00;0,0388
1495,00;0,0388
1494,00;0,0388
1493,00;0,0388
1492,00;0,0388
1491,00;0,0388
1490,00;0,0388
1489,00;0,0387
1488,00;0,0387
1487,00;0,0388
1486,00;0,0389
1485,00;0,0389
1484,00;0,0390
1483,00;0,0390
1482,00;0,0390
1481,00;0,0391
1480,00;0,0391
1479,00;0,0391
1478,00;0,0391
1477,00;0,0391
1476,00;0,0391
1475,00;0,0391
1474,00;0,0391
1473,00;0,0391
1472,00;0,0391
1471,00;0,0391
1470,00;0,0391
1469,00;0,0391
1468,00;0,0391
1467,00;0,0391
1466,00;0,0391
1465,00;0,0391
1464,00;0,0392
1463,00;0,0392
1462,00;0,0393
1461,00;0,0394
1460,00;0,0395
1459,00;0,0395
1458,00;0,0395
1457,00;0,0395
1456,00;0,0395
1455,00;0,0394
1454,00;0,0395
1453,00;0,0395
1452,00;0,0395
1451,00;0,0395
1450,00;0,0396
1449,00;0,0397
1448,00;0,0397
1447,00;0,0397
1446,00;0,0398
1445,00;0,0398
1444,00;0,0399
1443,00;0,0399
1442,00;0,0399
1441,00;0,0400
1440,00;0,0401
1439,00;0,0401
1438,00;0,0401
1437,00;0,0401
1436,00;0,0401
1435,00;0,0400
1434,00;0,0401
1433,00;0,0401
1432,00;0,0401
1431,00;0,0402
1430,00;0,0402
1429,00;0,0403
1428,00;0,0403
1427,00;0,0403
1426,00;0,0403
1425,00;0,0403
1424,00;0,0403
1423,00;0,0403
1422,00;0,0403
1421,00;0,0404
1420,00;0,0404
1419,00;0,0403
1418,00;0,0402
1417,00;0,0402
1416,00;0,0402
1415,00;0,0403
1414,00;0,0403
1413,00;0,0404
1412,00;0,0404
1411,00;0,0404
1410,00;0,0404
1409,00;0,0405
1408,00;0,0405
1407,00;0,0405
1406,00;0,0405
1405,00;0,0405
1404,00;0,0406
1403,00;0,0406
1402,00;0,0406
1401,00;0,0406
1400,00;0,0406
1399,00;0,0406
1398,00;0,0406
1397,00;0,0406
1396,00;0,0406
1395,00;0,0407
1394,00;0,0407
1393,00;0,0408
1392,00;0,0409
1391,00;0,0409
1390,00;0,0410
1389,00;0,0411
1388,00;0,0411
1387,00;0,0412
1386,00;0,0413
1385,00;0,0414
1384,00;0,0415
1383,00;0,0416
1382,00;0,0416
1381,00;0,0417
1380,00;0,0417
1379,00;0,0418
1378,00;0,0418
1377,00;0,0419
1376,00;0,0420
1375,00;0,0420
1374,00;0,0420
1373,00;0,0420
1372,00;0,0420
1371,00;0,0421
1370,00;0,0421
1369,00;0,0422
1368,00;0,0423
1367,00;0,0423
1366,00;0,0423
1365,00;0,0422
1364,00;0,0421
1363,00;0,0420
1362,00;0,0420
1361,00;0,0420
1360,00;0,0420
1359,00;0,0420
1358,00;0,0421
1357,00;0,0421
1356,00;0,0422
1355,00;0,0422
1354,00;0,0422
1353,00;0,0422
1352,00;0,0422
1351,00;0,0422
1350,00;0,0421
1349,00;0,0421
1348,00;0,0420
1347,00;0,0420
1346,00;0,0420
1345,00;0,0419
1344,00;0,0419
1343,00;0,0419
1342,00;0,0419
1341,00;0,0418
1340,00;0,0417
1339,00;0,0417
1338,00;0,0417
1337,00;0,0417
1336,00;0,0417
1335,00;0,0417
1334,00;0,0417
1333,00;0,0418
1332,00;0,0418
1331,00;0,0417
1330,00;0,0417
1329,00;0,0418
1328,00;0,0418
1327,00;0,0418
1326,00;0,0418
1325,00;0,0417
1324,00;0,0417
1323,00;0,0417
1322,00;0,0418
1321,00;0,0418
1320,00;0,0418
1319,00;0,0418
1318,00;0,0418
1317,00;0,0418
1316,00;0,0418
1315,00;0,0418
1314,00;0,0418
1313,00;0,0419
1312,00;0,0419
1311,00;0,0419
1310,00;0,0419
1309,00;0,0419
1308,00;0,0419
1307,00;0,0419
1306,00;0,0419
1305,00;0,0420
1304,00;0,0420
1303,00;0,0420
1302,00;0,0421
1301,00;0,0421
1300,00;0,0421
1299,00;0,0421
1298,00;0,0421
1297,00;0,0421
1296,00;0,0421
1295,00;0,0421
1294,00;0,0421
1293,00;0,0422
1292,00;0,0423
1291,00;0,0423
1290,00;0,0423
1289,00;0,0423
1288,00;0,0422
1287,00;0,0422
1286,00;0,0422
1285,00;0,0422
1284,00;0,0423
1283,00;0,0423
1282,00;0,0424
1281,00;0,0424
1280,00;0,0424
1279,00;0,0424
1278,00;0,0424
1277,00;0,0424
1276,00;0,0425
1275,00;0,0425
1274,00;0,0425
1273,00;0,0425
1272,00;0,0425
1271,00;0,0425
1270,00;0,0425
1269,00;0,0425
1268,00;0,0426
1267,00;0,0426
1266,00;0,0427
1265,00;0,0427
1264,00;0,0428
1263,00;0,0428
1262,00;0,0428
1261,00;0,0427
1260,00;0,0427
1259,00;0,0427
1258,00;0,0427
1257,00;0,0428
1256,00;0,0428
1255,00;0,0428
1254,00;0,0429
1253,00;0,0429
1252,00;0,0430
1251,00;0,0430
1250,00;0,0431
1249,00;0,0431
1248,00;0,0432
1247,00;0,0433
1246,00;0,0433
1245,00;0,0434
1244,00;0,0434
1243,00;0,0434
1242,00;0,0435
1241,00;0,0435
1240,00;0,0436
1239,00;0,0438
1238,00;0,0440
1237,00;0,0441
1236,00;0,0442
1235,00;0,0444
1234,00;0,0445
1233,00;0,0446
1232,00;0,0447
1231,00;0,0448
1230,00;0,0448
1229,00;0,0449
1228,00;0,0449
1227,00;0,0448
1226,00;0,0448
1225,00;0,0447
1224,00;0,0447
1223,00;0,0447
1222,00;0,0447
1221,00;0,0448
1220,00;0,0450
1219,00;0,0452
1218,00;0,0454
1217,00;0,0454
1216,00;0,0454
1215,00;0,0453
1214,00;0,0452
1213,00;0,0452
1212,00;0,0451
1211,00;0,0451
1210,00;0,0451
1209,00;0,0452
1208,00;0,0452
1207,00;0,0453
1206,00;0,0453
1205,00;0,0453
1204,00;0,0453
1203,00;0,0453
1202,00;0,0453
1201,00;0,0453
1200,00;0,0453
1199,00;0,0453
1198,00;0,0453
1197,00;0,0453
1196,00;0,0452
1195,00;0,0452
1194,00;0,0451
1193,00;0,0450
1192,00;0,0450
1191,00;0,0450
1190,00;0,0450
1189,00;0,0450
1188,00;0,0450
1187,00;0,0450
1186,00;0,0449
1185,00;0,0449
1184,00;0,0449
1183,00;0,0449
1182,00;0,0449
1181,00;0,0449
1180,00;0,0450
1179,00;0,0450
1178,00;0,0450
1177,00;0,0451
1176,00;0,0451
1175,00;0,0451
1174,00;0,0451
1173,00;0,0451
1172,00;0,0451
1171,00;0,0451
1170,00;0,0451
1169,00;0,0452
1168,00;0,0453
1167,00;0,0453
1166,00;0,0453
1165,00;0,0454
1164,00;0,0454
1163,00;0,0454
1162,00;0,0455
1161,00;0,0455
1160,00;0,0455
1159,00;0,0455
1158,00;0,0455
1157,00;0,0455
1156,00;0,0456
1155,00;0,0456
1154,00;0,0457
1153,00;0,0457
1152,00;0,0457
1151,00;0,0457
1150,00;0,0457
1149,00;0,0458
1148,00;0,0459
1147,00;0,0459
1146,00;0,0460
1145,00;0,0460
1144,00;0,0460
1143,00;0,0460
1142,00;0,0460
1141,00;0,0461
1140,00;0,0461
1139,00;0,0461
1138,00;0,0462
1137,00;0,0462
1136,00;0,0463
1135,00;0,0464
1134,00;0,0464
1133,00;0,0464
1132,00;0,0464
1131,00;0,0464
1130,00;0,0464
1129,00;0,0464
1128,00;0,0464
1127,00;0,0464
1126,00;0,0464
1125,00;0,0464
1124,00;0,0465
1123,00;0,0465
1122,00;0,0465
1121,00;0,0465
1120,00;0,0466
1119,00;0,0466
1118,00;0,0467
1117,00;0,0468
1116,00;0,0468
1115,00;0,0468
1114,00;0,0468
1113,00;0,0468
1112,00;0,0468
1111,00;0,0469
1110,00;0,0469
1109,00;0,0469
1108,00;0,0469
1107,00;0,0470
1106,00;0,0470
1105,00;0,0470
1104,00;0,0471
1103,00;0,0472
1102,00;0,0472
1101,00;0,0473
1100,00;0,0473
1099,00;0,0473
1098,00;0,0473
1097,00;0,0473
1096,00;0,0473
1095,00;0,0474
1094,00;0,0475
1093,00;0,0476
1092,00;0,0477
1091,00;0,0477
1090,00;0,0477
1089,00;0,0477
1088,00;0,0477
1087,00;0,0476
1086,00;0,0476
1085,00;0,0476
1084,00;0,0476
1083,00;0,0476
1082,00;0,0476
1081,00;0,0475
1080,00;0,0476
1079,00;0,0476
1078,00;0,0476
1077,00;0,0477
1076,00;0,0476
1075,00;0,0476
1074,00;0,0476
1073,00;0,0477
1072,00;0,0478
1071,00;0,0478
1070,00;0,0478
1069,00;0,0478
1068,00;0,0477
1067,00;0,0477
1066,00;0,0477
1065,00;0,0478
1064,00;0,0478
1063,00;0,0479
1062,00;0,0479
1061,00;0,0479
1060,00;0,0480
1059,00;0,0481
1058,00;0,0481
1057,00;0,0481
1056,00;0,0481
1055,00;0,0480
1054,00;0,0480
1053,00;0,0480
1052,00;0,0479
1051,00;0,0479
1050,00;0,0480
1049,00;0,0480
1048,00;0,0481
1047,00;0,0481
1046,00;0,0481
1045,00;0,0482
1044,00;0,0482
1043,00;0,0482
1042,00;0,0482
1041,00;0,0482
1040,00;0,0482
1039,00;0,0482
1038,00;0,0483
1037,00;0,0483
1036,00;0,0484
1035,00;0,0484
1034,00;0,0484
1033,00;0,0485
1032,00;0,0485
1031,00;0,0485
1030,00;0,0485
1029,00;0,0485
1028,00;0,0485
1027,00;0,0486
1026,00;0,0486
1025,00;0,0486
1024,00;0,0487
1023,00;0,0487
1022,00;0,0487
1021,00;0,0487
1020,00;0,0487
1019,00;0,0488
1018,00;0,0489
1017,00;0,0491
1016,00;0,0492
1015,00;0,0493
1014,00;0,0492
1013,00;0,0492
1012,00;0,0492
1011,00;0,0492
1010,00;0,0493
1009,00;0,0494
1008,00;0,0495
1007,00;0,0495
1006,00;0,0495
1005,00;0,0495
1004,00;0,0496
1003,00;0,0497
1002,00;0,0498
1001,00;0,0499
1000,00;0,0500
999,00;0,0500
998,00;0,0501
997,00;0,0501
996,00;0,0502
995,00;0,0502
994,00;0,0503
993,00;0,0503
992,00;0,0503
991,00;0,0503
990,00;0,0503
989,00;0,0504
988,00;0,0504
987,00;0,0505
986,00;0,0505
985,00;0,0505
984,00;0,0505
983,00;0,0505
982,00;0,0505
981,00;0,0506
980,00;0,0507
979,00;0,0507
978,00;0,0507
977,00;0,0508
976,00;0,0508
975,00;0,0508
974,00;0,0508
973,00;0,0508
972,00;0,0509
971,00;0,0509
970,00;0,0509
969,00;0,0509
968,00;0,0510
967,00;0,0510
966,00;0,0509
965,00;0,0509
964,00;0,0509
963,00;0,0509
962,00;0,0509
961,00;0,0509
960,00;0,0509
959,00;0,0509
958,00;0,0510
957,00;0,0510
956,00;0,0511
955,00;0,0511
954,00;0,0511
953,00;0,0511
952,00;0,0511
951,00;0,0511
950,00;0,0512
949,00;0,0512
948,00;0,0513
947,00;0,0514
946,00;0,0514
945,00;0,0514
944,00;0,0514
943,00;0,0514
942,00;0,0515
941,00;0,0515
940,00;0,0516
939,00;0,0516
938,00;0,0515
937,00;0,0515
936,00;0,0515
935,00;0,0516
934,00;0,0517
933,00;0,0518
932,00;0,0519
931,00;0,0520
930,00;0,0520
929,00;0,0521
928,00;0,0521
927,00;0,0521
926,00;0,0521
925,00;0,0522
924,00;0,0522
923,00;0,0523
922,00;0,0524
921,00;0,0525
920,00;0,0525
919,00;0,0526
918,00;0,0527
917,00;0,0527
916,00;0,0528
915,00;0,0528
914,00;0,0529
913,00;0,0529
912,00;0,0529
911,00;0,0529
910,00;0,0529
909,00;0,0530
908,00;0,0531
907,00;0,0532
906,00;0,0532
905,00;0,0533
904,00;0,0533
903,00;0,0534
902,00;0,0534
901,00;0,0535
900,00;0,0535
899,00;0,0535
898,00;0,0535
897,00;0,0535
896,00;0,0535
895,00;0,0536
894,00;0,0536
893,00;0,0537
892,00;0,0539
891,00;0,0539
890,00;0,0539
889,00;0,0539
888,00;0,0539
887,00;0,0539
886,00;0,0540
885,00;0,0540
884,00;0,0541
883,00;0,0542
882,00;0,0542
881,00;0,0542
880,00;0,0542
879,00;0,0543
878,00;0,0543
877,00;0,0543
876,00;0,0543
875,00;0,0544
874,00;0,0544
873,00;0,0544
872,00;0,0544
871,00;0,0544
870,00;0,0545
869,00;0,0546
868,00;0,0547
867,00;0,0547
866,00;0,0547
865,00;0,0547
864,00;0,0547
863,00;0,0547
862,00;0,0546
861,00;0,0546
860,00;0,0546
859,00;0,0546
858,00;0,0547
857,00;0,0547
856,00;0,0546
855,00;0,0545
854,00;0,0544
853,00;0,0545
852,00;0,0547
851,00;0,0548
850,00;0,0549
849,00;0,0549
848,00;0,0549
847,00;0,0549
846,00;0,0549
845,00;0,0549
844,00;0,0550
843,00;0,0550
842,00;0,0550
841,00;0,0549
840,00;0,0549
839,00;0,0548
838,00;0,0548
837,00;0,0547
836,00;0,0547
835,00;0,0547
834,00;0,0548
833,00;0,0549
832,00;0,0550
831,00;0,0551
830,00;0,0550
829,00;0,0549
828,00;0,0548
827,00;0,0547
826,00;0,0547
825,00;0,0547
824,00;0,0547
823,00;0,0547
822,00;0,0547
821,00;0,0546
820,00;0,0546
819,00;0,0545
818,00;0,0546
817,00;0,0546
816,00;0,0546
815,00;0,0547
814,00;0,0547
813,00;0,0547
812,00;0,0546
811,00;0,0546
810,00;0,0547
809,00;0,0548
808,00;0,0548
807,00;0,0547
806,00;0,0547
805,00;0,0547
804,00;0,0547
803,00;0,0547
802,00;0,0548
801,00;0,0547
800,00;0,0547
799,00;0,0546
798,00;0,0545
797,00;0,0545
796,00;0,0545
795,00;0,0545
794,00;0,0545
793,00;0,0545
792,00;0,0544
791,00;0,0544
790,00;0,0544
789,00;0,0544
788,00;0,0546
787,00;0,0547
786,00;0,0548
785,00;0,0548
784,00;0,0547
783,00;0,0545
782,00;0,0544
781,00;0,0544
780,00;0,0544
779,00;0,0544
778,00;0,0544
777,00;0,0545
776,00;0,0545
775,00;0,0545
774,00;0,0544
773,00;0,0543
772,00;0,0543
771,00;0,0542
770,00;0,0542
769,00;0,0542
768,00;0,0542
767,00;0,0541
766,00;0,0541
765,00;0,0541
764,00;0,0541
763,00;0,0542
762,00;0,0543
761,00;0,0543
760,00;0,0543
759,00;0,0542
758,00;0,0541
757,00;0,0540
756,00;0,0540
755,00;0,0541
754,00;0,0541
753,00;0,0540
752,00;0,0539
751,00;0,0538
750,00;0,0536
749,00;0,0535
748,00;0,0535
747,00;0,0535
746,00;0,0535
745,00;0,0536
744,00;0,0536
743,00;0,0536
742,00;0,0537
741,00;0,0538
740,00;0,0539
739,00;0,0540
738,00;0,0539
737,00;0,0539
736,00;0,0538
735,00;0,0538
734,00;0,0537
733,00;0,0537
732,00;0,0537
731,00;0,0537
730,00;0,0536
729,00;0,0536
728,00;0,0535
727,00;0,0534
726,00;0,0534
725,00;0,0533
724,00;0,0533
723,00;0,0533
722,00;0,0534
721,00;0,0533
720,00;0,0533
719,00;0,0533
718,00;0,0534
717,00;0,0534
716,00;0,0534
715,00;0,0533
714,00;0,0533
713,00;0,0533
712,00;0,0533
711,00;0,0533
710,00;0,0532
709,00;0,0532
708,00;0,0533
707,00;0,0533
706,00;0,0533
705,00;0,0533
704,00;0,0532
703,00;0,0533
702,00;0,0534
701,00;0,0535
700,00;0,0535
699,00;0,0535
698,00;0,0534
697,00;0,0535
696,00;0,0536
695,00;0,0538
694,00;0,0538
693,00;0,0538
692,00;0,0537
691,00;0,0538
690,00;0,0540
689,00;0,0541
688,00;0,0541
687,00;0,0541
686,00;0,0541
685,00;0,0543
684,00;0,0544
683,00;0,0546
682,00;0,0547
681,00;0,0548
680,00;0,0549
679,00;0,0550
678,00;0,0550
677,00;0,0551
676,00;0,0551
675,00;0,0551
674,00;0,0552
673,00;0,0553
672,00;0,0553
671,00;0,0551
670,00;0,0547
669,00;0,0546
668,00;0,0548
667,00;0,0551
666,00;0,0556
665,00;0,0561
664,00;0,0565
663,00;0,0568
662,00;0,0569
661,00;0,0571
660,00;0,0573
659,00;0,0575
658,00;0,0578
657,00;0,0580
656,00;0,0584
655,00;0,0587
654,00;0,0591
653,00;0,0595
652,00;0,0598
651,00;0,0601
650,00;0,0604
649,00;0,0608
648,00;0,0613
647,00;0,0616
646,00;0,0619
645,00;0,0622
644,00;0,0626
643,00;0,0631
642,00;0,0636
641,00;0,0638
640,00;0,0640
639,00;0,0640
638,00;0,0641
637,00;0,0643
636,00;0,0646
635,00;0,0649
634,00;0,0653
633,00;0,0656
632,00;0,0658
631,00;0,0659
630,00;0,0661
629,00;0,0665
628,00;0,0668
627,00;0,0671
626,00;0,0673
625,00;0,0675
624,00;0,0676
623,00;0,0678
622,00;0,0680
621,00;0,0682
620,00;0,0683
619,00;0,0683
618,00;0,0684
617,00;0,0686
616,00;0,0688
615,00;0,0690
614,00;0,0693
613,00;0,0698
612,00;0,0703
611,00;0,0706
610,00;0,0707
609,00;0,0708
608,00;0,0709
607,00;0,0712
606,00;0,0716
605,00;0,0720
604,00;0,0724
603,00;0,0727
602,00;0,0730
601,00;0,0732
600,00;0,0735
599,00;0,0737
598,00;0,0740
597,00;0,0744
596,00;0,0748
595,00;0,0752
594,00;0,0755
593,00;0,0757
592,00;0,0758
591,00;0,0759
590,00;0,0762
589,00;0,0766
588,00;0,0770
587,00;0,0774
586,00;0,0777
585,00;0,0781
584,00;0,0785
583,00;0,0788
582,00;0,0791
581,00;0,0795
580,00;0,0800
579,00;0,0806
578,00;0,0811
577,00;0,0815
576,00;0,0819
575,00;0,0824
574,00;0,0828
573,00;0,0831
572,00;0,0832
571,00;0,0834
570,00;0,0836
569,00;0,0838
568,00;0,0841
567,00;0,0844
566,00;0,0848
565,00;0,0853
564,00;0,0856
563,00;0,0859
562,00;0,0862
561,00;0,0866
560,00;0,0870
559,00;0,0874
558,00;0,0876
557,00;0,0878
556,00;0,0879
555,00;0,0881
554,00;0,0884
553,00;0,0888
552,00;0,0891
551,00;0,0893
550,00;0,0895
549,00;0,0898
548,00;0,0902
547,00;0,0907
546,00;0,0911
545,00;0,0914
544,00;0,0916
543,00;0,0917
542,00;0,0916
541,00;0,0915
540,00;0,0914
539,00;0,0914
538,00;0,0914
537,00;0,0916
536,00;0,0918
535,00;0,0920
534,00;0,0922
533,00;0,0926
532,00;0,0930
531,00;0,0933
530,00;0,0933
529,00;0,0933
528,00;0,0934
527,00;0,0934
526,00;0,0936
525,00;0,0937
524,00;0,0938
523,00;0,0939
522,00;0,0940
521,00;0,0942
520,00;0,0946
519,00;0,0948
518,00;0,0950
517,00;0,0949
516,00;0,0949
515,00;0,0949
514,00;0,0948
513,00;0,0949
512,00;0,0948
511,00;0,0946
510,00;0,0942
509,00;0,0939
508,00;0,0936
507,00;0,0935
506,00;0,0934
505,00;0,0933
504,00;0,0930
503,00;0,0928
502,00;0,0925
501,00;0,0925
500,00;0,0927
499,00;0,0927
498,00;0,0926
497,00;0,0924
496,00;0,0923
495,00;0,0924
494,00;0,0928
493,00;0,0934
492,00;0,0939
491,00;0,0940
490,00;0,0938
489,00;0,0936
488,00;0,0937
487,00;0,0941
486,00;0,0948
485,00;0,0954
484,00;0,0960
483,00;0,0965
482,00;0,0969
481,00;0,0973
480,00;0,0973
479,00;0,0971
478,00;0,0968
477,00;0,0967
476,00;0,0968
475,00;0,0971
474,00;0,0975
473,00;0,0980
472,00;0,0985
471,00;0,0991
470,00;0,0997
469,00;0,1003
468,00;0,1007
467,00;0,1008
466,00;0,1007
465,00;0,1009
464,00;0,1015
463,00;0,1025
462,00;0,1034
461,00;0,1037
460,00;0,1034
459,00;0,1026
458,00;0,1022
457,00;0,1024
456,00;0,1028
455,00;0,1028
454,00;0,1026
453,00;0,1027
452,00;0,1033
451,00;0,1041
450,00;0,1047
449,00;0,1050
448,00;0,1051
447,00;0,1049
446,00;0,1048
445,00;0,1054
444,00;0,1065
443,00;0,1077
442,00;0,1087
441,00;0,1094
440,00;0,1097
439,00;0,1097
438,00;0,1097
437,00;0,1099
436,00;0,1103
435,00;0,1105
434,00;0,1103
433,00;0,1099
432,00;0,1098
431,00;0,1102
430,00;0,1110
429,00;0,1123
428,00;0,1135
427,00;0,1139
426,00;0,1135
425,00;0,1126
424,00;0,1115
423,00;0,1102
422,00;0,1088
421,00;0,1077
420,00;0,1073
419,00;0,1072
418,00;0,1070
417,00;0,1070
416,00;0,1075
415,00;0,1083
414,00;0,1090
413,00;0,1090
412,00;0,1080
411,00;0,1063
410,00;0,1046
409,00;0,1034
408,00;0,1023
407,00;0,1015
406,00;0,1021
405,00;0,1047
404,00;0,1076
403,00;0,1086
402,00;0,1072
401,00;0,1054
400,00;0,1048
