Создан как новый массив данных;Образец 007 полученный BalashovM Дата пятница, марта 03 2023
cm-1;A
4000,00;0,0067
3999,00;0,0067
3998,00;0,0067
3997,00;0,0067
3996,00;0,0067
3995,00;0,0067
3994,00;0,0067
3993,00;0,0067
3992,00;0,0067
3991,00;0,0067
3990,00;0,0067
3989,00;0,0067
3988,00;0,0067
3987,00;0,0067
3986,00;0,0067
3985,00;0,0067
3984,00;0,0067
3983,00;0,0068
3982,00;0,0068
3981,00;0,0068
3980,00;0,0068
3979,00;0,0068
3978,00;0,0068
3977,00;0,0068
3976,00;0,0068
3975,00;0,0067
3974,00;0,0068
3973,00;0,0068
3972,00;0,0068
3971,00;0,0068
3970,00;0,0068
3969,00;0,0068
3968,00;0,0068
3967,00;0,0068
3966,00;0,0068
3965,00;0,0068
3964,00;0,0068
3963,00;0,0068
3962,00;0,0068
3961,00;0,0068
3960,00;0,0068
3959,00;0,0068
3958,00;0,0068
3957,00;0,0068
3956,00;0,0068
3955,00;0,0068
3954,00;0,0068
3953,00;0,0068
3952,00;0,0068
3951,00;0,0068
3950,00;0,0068
3949,00;0,0068
3948,00;0,0068
3947,00;0,0068
3946,00;0,0068
3945,00;0,0068
3944,00;0,0068
3943,00;0,0068
3942,00;0,0068
3941,00;0,0068
3940,00;0,0068
3939,00;0,0068
3938,00;0,0068
3937,00;0,0068
3936,00;0,0068
3935,00;0,0068
3934,00;0,0068
3933,00;0,0068
3932,00;0,0068
3931,00;0,0068
3930,00;0,0068
3929,00;0,0068
3928,00;0,0068
3927,00;0,0068
3926,00;0,0068
3925,00;0,0068
3924,00;0,0068
3923,00;0,0068
3922,00;0,0068
3921,00;0,0068
3920,00;0,0068
3919,00;0,0068
3918,00;0,0068
3917,00;0,0068
3916,00;0,0068
3915,00;0,0068
3914,00;0,0068
3913,00;0,0068
3912,00;0,0068
3911,00;0,0068
3910,00;0,0068
3909,00;0,0068
3908,00;0,0068
3907,00;0,0068
3906,00;0,0068
3905,00;0,0068
3904,00;0,0068
3903,00;0,0068
3902,00;0,0068
3901,00;0,0068
3900,00;0,0068
3899,00;0,0068
3898,00;0,0068
3897,00;0,0068
3896,00;0,0068
3895,00;0,0068
3894,00;0,0068
3893,00;0,0068
3892,00;0,0068
3891,00;0,0068
3890,00;0,0068
3889,00;0,0068
3888,00;0,0068
3887,00;0,0068
3886,00;0,0068
3885,00;0,0068
3884,00;0,0068
3883,00;0,0068
3882,00;0,0068
3881,00;0,0068
3880,00;0,0068
3879,00;0,0068
3878,00;0,0068
3877,00;0,0068
3876,00;0,0068
3875,00;0,0068
3874,00;0,0068
3873,00;0,0068
3872,00;0,0068
3871,00;0,0068
3870,00;0,0068
3869,00;0,0068
3868,00;0,0068
3867,00;0,0068
3866,00;0,0068
3865,00;0,0068
3864,00;0,0068
3863,00;0,0068
3862,00;0,0068
3861,00;0,0068
3860,00;0,0067
3859,00;0,0067
3858,00;0,0067
3857,00;0,0067
3856,00;0,0067
3855,00;0,0067
3854,00;0,0067
3853,00;0,0067
3852,00;0,0067
3851,00;0,0067
3850,00;0,0067
3849,00;0,0067
3848,00;0,0067
3847,00;0,0067
3846,00;0,0067
3845,00;0,0067
3844,00;0,0067
3843,00;0,0067
3842,00;0,0067
3841,00;0,0067
3840,00;0,0067
3839,00;0,0067
3838,00;0,0067
3837,00;0,0067
3836,00;0,0067
3835,00;0,0068
3834,00;0,0067
3833,00;0,0067
3832,00;0,0067
3831,00;0,0067
3830,00;0,0067
3829,00;0,0068
3828,00;0,0068
3827,00;0,0067
3826,00;0,0067
3825,00;0,0068
3824,00;0,0068
3823,00;0,0068
3822,00;0,0068
3821,00;0,0068
3820,00;0,0068
3819,00;0,0068
3818,00;0,0068
3817,00;0,0068
3816,00;0,0068
3815,00;0,0068
3814,00;0,0068
3813,00;0,0068
3812,00;0,0068
3811,00;0,0068
3810,00;0,0068
3809,00;0,0068
3808,00;0,0068
3807,00;0,0068
3806,00;0,0068
3805,00;0,0068
3804,00;0,0068
3803,00;0,0067
3802,00;0,0067
3801,00;0,0067
3800,00;0,0067
3799,00;0,0068
3798,00;0,0068
3797,00;0,0068
3796,00;0,0068
3795,00;0,0068
3794,00;0,0068
3793,00;0,0068
3792,00;0,0068
3791,00;0,0068
3790,00;0,0068
3789,00;0,0068
3788,00;0,0068
3787,00;0,0068
3786,00;0,0068
3785,00;0,0068
3784,00;0,0068
3783,00;0,0068
3782,00;0,0068
3781,00;0,0068
3780,00;0,0068
3779,00;0,0068
3778,00;0,0068
3777,00;0,0068
3776,00;0,0068
3775,00;0,0068
3774,00;0,0068
3773,00;0,0068
3772,00;0,0068
3771,00;0,0068
3770,00;0,0068
3769,00;0,0068
3768,00;0,0068
3767,00;0,0068
3766,00;0,0068
3765,00;0,0068
3764,00;0,0068
3763,00;0,0068
3762,00;0,0068
3761,00;0,0068
3760,00;0,0068
3759,00;0,0068
3758,00;0,0068
3757,00;0,0068
3756,00;0,0067
3755,00;0,0067
3754,00;0,0067
3753,00;0,0067
3752,00;0,0067
3751,00;0,0067
3750,00;0,0067
3749,00;0,0067
3748,00;0,0067
3747,00;0,0067
3746,00;0,0067
3745,00;0,0067
3744,00;0,0067
3743,00;0,0067
3742,00;0,0067
3741,00;0,0067
3740,00;0,0067
3739,00;0,0067
3738,00;0,0067
3737,00;0,0067
3736,00;0,0067
3735,00;0,0067
3734,00;0,0067
3733,00;0,0067
3732,00;0,0067
3731,00;0,0067
3730,00;0,0067
3729,00;0,0067
3728,00;0,0067
3727,00;0,0067
3726,00;0,0067
3725,00;0,0067
3724,00;0,0067
3723,00;0,0067
3722,00;0,0067
3721,00;0,0067
3720,00;0,0067
3719,00;0,0067
3718,00;0,0067
3717,00;0,0067
3716,00;0,0067
3715,00;0,0067
3714,00;0,0067
3713,00;0,0067
3712,00;0,0067
3711,00;0,0067
3710,00;0,0067
3709,00;0,0067
3708,00;0,0067
3707,00;0,0067
3706,00;0,0067
3705,00;0,0067
3704,00;0,0067
3703,00;0,0067
3702,00;0,0067
3701,00;0,0067
3700,00;0,0067
3699,00;0,0067
3698,00;0,0067
3697,00;0,0067
3696,00;0,0067
3695,00;0,0067
3694,00;0,0067
3693,00;0,0067
3692,00;0,0067
3691,00;0,0067
3690,00;0,0068
3689,00;0,0068
3688,00;0,0067
3687,00;0,0067
3686,00;0,0067
3685,00;0,0067
3684,00;0,0067
3683,00;0,0068
3682,00;0,0068
3681,00;0,0068
3680,00;0,0068
3679,00;0,0068
3678,00;0,0068
3677,00;0,0067
3676,00;0,0068
3675,00;0,0068
3674,00;0,0068
3673,00;0,0068
3672,00;0,0068
3671,00;0,0068
3670,00;0,0069
3669,00;0,0069
3668,00;0,0069
3667,00;0,0069
3666,00;0,0070
3665,00;0,0070
3664,00;0,0070
3663,00;0,0071
3662,00;0,0072
3661,00;0,0072
3660,00;0,0072
3659,00;0,0073
3658,00;0,0073
3657,00;0,0073
3656,00;0,0073
3655,00;0,0073
3654,00;0,0074
3653,00;0,0074
3652,00;0,0074
3651,00;0,0074
3650,00;0,0075
3649,00;0,0075
3648,00;0,0076
3647,00;0,0076
3646,00;0,0077
3645,00;0,0078
3644,00;0,0079
3643,00;0,0080
3642,00;0,0080
3641,00;0,0081
3640,00;0,0082
3639,00;0,0083
3638,00;0,0084
3637,00;0,0085
3636,00;0,0085
3635,00;0,0086
3634,00;0,0086
3633,00;0,0087
3632,00;0,0087
3631,00;0,0087
3630,00;0,0088
3629,00;0,0088
3628,00;0,0089
3627,00;0,0090
3626,00;0,0091
3625,00;0,0092
3624,00;0,0093
3623,00;0,0094
3622,00;0,0095
3621,00;0,0096
3620,00;0,0096
3619,00;0,0096
3618,00;0,0097
3617,00;0,0098
3616,00;0,0099
3615,00;0,0101
3614,00;0,0102
3613,00;0,0103
3612,00;0,0104
3611,00;0,0105
3610,00;0,0107
3609,00;0,0108
3608,00;0,0109
3607,00;0,0111
3606,00;0,0112
3605,00;0,0114
3604,00;0,0116
3603,00;0,0117
3602,00;0,0119
3601,00;0,0121
3600,00;0,0123
3599,00;0,0125
3598,00;0,0127
3597,00;0,0129
3596,00;0,0131
3595,00;0,0133
3594,00;0,0135
3593,00;0,0138
3592,00;0,0140
3591,00;0,0142
3590,00;0,0145
3589,00;0,0148
3588,00;0,0150
3587,00;0,0152
3586,00;0,0155
3585,00;0,0158
3584,00;0,0162
3583,00;0,0166
3582,00;0,0170
3581,00;0,0173
3580,00;0,0177
3579,00;0,0181
3578,00;0,0185
3577,00;0,0189
3576,00;0,0194
3575,00;0,0198
3574,00;0,0203
3573,00;0,0207
3572,00;0,0212
3571,00;0,0217
3570,00;0,0222
3569,00;0,0227
3568,00;0,0231
3567,00;0,0236
3566,00;0,0240
3565,00;0,0245
3564,00;0,0250
3563,00;0,0255
3562,00;0,0259
3561,00;0,0264
3560,00;0,0268
3559,00;0,0271
3558,00;0,0274
3557,00;0,0277
3556,00;0,0280
3555,00;0,0283
3554,00;0,0286
3553,00;0,0289
3552,00;0,0291
3551,00;0,0293
3550,00;0,0295
3549,00;0,0297
3548,00;0,0298
3547,00;0,0300
3546,00;0,0301
3545,00;0,0301
3544,00;0,0303
3543,00;0,0304
3542,00;0,0305
3541,00;0,0306
3540,00;0,0307
3539,00;0,0308
3538,00;0,0308
3537,00;0,0308
3536,00;0,0308
3535,00;0,0308
3534,00;0,0308
3533,00;0,0308
3532,00;0,0308
3531,00;0,0308
3530,00;0,0308
3529,00;0,0308
3528,00;0,0307
3527,00;0,0306
3526,00;0,0305
3525,00;0,0304
3524,00;0,0303
3523,00;0,0302
3522,00;0,0301
3521,00;0,0300
3520,00;0,0300
3519,00;0,0298
3518,00;0,0297
3517,00;0,0296
3516,00;0,0295
3515,00;0,0293
3514,00;0,0293
3513,00;0,0292
3512,00;0,0291
3511,00;0,0291
3510,00;0,0290
3509,00;0,0290
3508,00;0,0289
3507,00;0,0289
3506,00;0,0290
3505,00;0,0290
3504,00;0,0290
3503,00;0,0290
3502,00;0,0290
3501,00;0,0291
3500,00;0,0291
3499,00;0,0292
3498,00;0,0293
3497,00;0,0294
3496,00;0,0295
3495,00;0,0295
3494,00;0,0296
3493,00;0,0296
3492,00;0,0297
3491,00;0,0297
3490,00;0,0297
3489,00;0,0298
3488,00;0,0298
3487,00;0,0298
3486,00;0,0298
3485,00;0,0298
3484,00;0,0298
3483,00;0,0297
3482,00;0,0296
3481,00;0,0295
3480,00;0,0294
3479,00;0,0294
3478,00;0,0293
3477,00;0,0293
3476,00;0,0292
3475,00;0,0292
3474,00;0,0291
3473,00;0,0290
3472,00;0,0289
3471,00;0,0288
3470,00;0,0288
3469,00;0,0287
3468,00;0,0287
3467,00;0,0287
3466,00;0,0287
3465,00;0,0287
3464,00;0,0287
3463,00;0,0287
3462,00;0,0288
3461,00;0,0289
3460,00;0,0290
3459,00;0,0291
3458,00;0,0292
3457,00;0,0293
3456,00;0,0294
3455,00;0,0294
3454,00;0,0295
3453,00;0,0296
3452,00;0,0296
3451,00;0,0297
3450,00;0,0297
3449,00;0,0297
3448,00;0,0297
3447,00;0,0297
3446,00;0,0296
3445,00;0,0296
3444,00;0,0295
3443,00;0,0295
3442,00;0,0293
3441,00;0,0292
3440,00;0,0291
3439,00;0,0290
3438,00;0,0289
3437,00;0,0288
3436,00;0,0287
3435,00;0,0286
3434,00;0,0286
3433,00;0,0285
3432,00;0,0284
3431,00;0,0284
3430,00;0,0284
3429,00;0,0284
3428,00;0,0284
3427,00;0,0284
3426,00;0,0284
3425,00;0,0284
3424,00;0,0284
3423,00;0,0284
3422,00;0,0284
3421,00;0,0284
3420,00;0,0285
3419,00;0,0285
3418,00;0,0284
3417,00;0,0284
3416,00;0,0284
3415,00;0,0284
3414,00;0,0284
3413,00;0,0284
3412,00;0,0284
3411,00;0,0284
3410,00;0,0284
3409,00;0,0285
3408,00;0,0285
3407,00;0,0285
3406,00;0,0285
3405,00;0,0285
3404,00;0,0285
3403,00;0,0284
3402,00;0,0284
3401,00;0,0284
3400,00;0,0285
3399,00;0,0286
3398,00;0,0286
3397,00;0,0287
3396,00;0,0287
3395,00;0,0287
3394,00;0,0287
3393,00;0,0287
3392,00;0,0288
3391,00;0,0288
3390,00;0,0289
3389,00;0,0289
3388,00;0,0290
3387,00;0,0290
3386,00;0,0290
3385,00;0,0290
3384,00;0,0290
3383,00;0,0290
3382,00;0,0290
3381,00;0,0291
3380,00;0,0291
3379,00;0,0291
3378,00;0,0291
3377,00;0,0291
3376,00;0,0292
3375,00;0,0292
3374,00;0,0292
3373,00;0,0292
3372,00;0,0292
3371,00;0,0292
3370,00;0,0292
3369,00;0,0292
3368,00;0,0293
3367,00;0,0293
3366,00;0,0294
3365,00;0,0294
3364,00;0,0294
3363,00;0,0295
3362,00;0,0295
3361,00;0,0295
3360,00;0,0295
3359,00;0,0295
3358,00;0,0296
3357,00;0,0296
3356,00;0,0296
3355,00;0,0296
3354,00;0,0296
3353,00;0,0296
3352,00;0,0296
3351,00;0,0297
3350,00;0,0297
3349,00;0,0297
3348,00;0,0298
3347,00;0,0298
3346,00;0,0298
3345,00;0,0298
3344,00;0,0298
3343,00;0,0298
3342,00;0,0298
3341,00;0,0298
3340,00;0,0298
3339,00;0,0298
3338,00;0,0299
3337,00;0,0299
3336,00;0,0300
3335,00;0,0300
3334,00;0,0301
3333,00;0,0301
3332,00;0,0301
3331,00;0,0301
3330,00;0,0301
3329,00;0,0301
3328,00;0,0301
3327,00;0,0301
3326,00;0,0301
3325,00;0,0302
3324,00;0,0302
3323,00;0,0302
3322,00;0,0302
3321,00;0,0303
3320,00;0,0303
3319,00;0,0303
3318,00;0,0303
3317,00;0,0303
3316,00;0,0303
3315,00;0,0303
3314,00;0,0303
3313,00;0,0303
3312,00;0,0303
3311,00;0,0302
3310,00;0,0302
3309,00;0,0301
3308,00;0,0301
3307,00;0,0301
3306,00;0,0301
3305,00;0,0302
3304,00;0,0303
3303,00;0,0304
3302,00;0,0304
3301,00;0,0305
3300,00;0,0305
3299,00;0,0305
3298,00;0,0304
3297,00;0,0304
3296,00;0,0304
3295,00;0,0304
3294,00;0,0304
3293,00;0,0304
3292,00;0,0305
3291,00;0,0305
3290,00;0,0306
3289,00;0,0306
3288,00;0,0307
3287,00;0,0307
3286,00;0,0307
3285,00;0,0307
3284,00;0,0307
3283,00;0,0307
3282,00;0,0308
3281,00;0,0308
3280,00;0,0308
3279,00;0,0308
3278,00;0,0308
3277,00;0,0308
3276,00;0,0307
3275,00;0,0307
3274,00;0,0307
3273,00;0,0307
3272,00;0,0307
3271,00;0,0308
3270,00;0,0308
3269,00;0,0309
3268,00;0,0310
3267,00;0,0310
3266,00;0,0310
3265,00;0,0311
3264,00;0,0311
3263,00;0,0311
3262,00;0,0312
3261,00;0,0312
3260,00;0,0312
3259,00;0,0312
3258,00;0,0312
3257,00;0,0312
3256,00;0,0313
3255,00;0,0313
3254,00;0,0313
3253,00;0,0313
3252,00;0,0314
3251,00;0,0314
3250,00;0,0314
3249,00;0,0314
3248,00;0,0314
3247,00;0,0314
3246,00;0,0315
3245,00;0,0315
3244,00;0,0316
3243,00;0,0316
3242,00;0,0316
3241,00;0,0316
3240,00;0,0316
3239,00;0,0316
3238,00;0,0317
3237,00;0,0316
3236,00;0,0316
3235,00;0,0316
3234,00;0,0316
3233,00;0,0316
3232,00;0,0317
3231,00;0,0317
3230,00;0,0317
3229,00;0,0318
3228,00;0,0318
3227,00;0,0318
3226,00;0,0318
3225,00;0,0318
3224,00;0,0318
3223,00;0,0318
3222,00;0,0318
3221,00;0,0318
3220,00;0,0318
3219,00;0,0318
3218,00;0,0318
3217,00;0,0318
3216,00;0,0318
3215,00;0,0318
3214,00;0,0318
3213,00;0,0318
3212,00;0,0318
3211,00;0,0318
3210,00;0,0318
3209,00;0,0318
3208,00;0,0318
3207,00;0,0318
3206,00;0,0317
3205,00;0,0317
3204,00;0,0317
3203,00;0,0317
3202,00;0,0317
3201,00;0,0317
3200,00;0,0316
3199,00;0,0317
3198,00;0,0317
3197,00;0,0317
3196,00;0,0316
3195,00;0,0316
3194,00;0,0316
3193,00;0,0315
3192,00;0,0315
3191,00;0,0314
3190,00;0,0314
3189,00;0,0314
3188,00;0,0314
3187,00;0,0314
3186,00;0,0314
3185,00;0,0313
3184,00;0,0313
3183,00;0,0312
3182,00;0,0312
3181,00;0,0312
3180,00;0,0312
3179,00;0,0312
3178,00;0,0312
3177,00;0,0311
3176,00;0,0311
3175,00;0,0311
3174,00;0,0311
3173,00;0,0311
3172,00;0,0310
3171,00;0,0310
3170,00;0,0310
3169,00;0,0310
3168,00;0,0309
3167,00;0,0309
3166,00;0,0309
3165,00;0,0309
3164,00;0,0309
3163,00;0,0309
3162,00;0,0309
3161,00;0,0309
3160,00;0,0308
3159,00;0,0308
3158,00;0,0308
3157,00;0,0307
3156,00;0,0307
3155,00;0,0307
3154,00;0,0306
3153,00;0,0306
3152,00;0,0306
3151,00;0,0306
3150,00;0,0306
3149,00;0,0306
3148,00;0,0306
3147,00;0,0306
3146,00;0,0306
3145,00;0,0306
3144,00;0,0306
3143,00;0,0305
3142,00;0,0305
3141,00;0,0305
3140,00;0,0305
3139,00;0,0305
3138,00;0,0305
3137,00;0,0305
3136,00;0,0305
3135,00;0,0305
3134,00;0,0305
3133,00;0,0305
3132,00;0,0304
3131,00;0,0304
3130,00;0,0304
3129,00;0,0304
3128,00;0,0304
3127,00;0,0304
3126,00;0,0304
3125,00;0,0304
3124,00;0,0304
3123,00;0,0304
3122,00;0,0303
3121,00;0,0303
3120,00;0,0303
3119,00;0,0303
3118,00;0,0303
3117,00;0,0302
3116,00;0,0303
3115,00;0,0303
3114,00;0,0303
3113,00;0,0303
3112,00;0,0303
3111,00;0,0302
3110,00;0,0302
3109,00;0,0302
3108,00;0,0302
3107,00;0,0302
3106,00;0,0302
3105,00;0,0302
3104,00;0,0302
3103,00;0,0302
3102,00;0,0302
3101,00;0,0302
3100,00;0,0302
3099,00;0,0302
3098,00;0,0302
3097,00;0,0302
3096,00;0,0302
3095,00;0,0301
3094,00;0,0301
3093,00;0,0301
3092,00;0,0301
3091,00;0,0300
3090,00;0,0300
3089,00;0,0300
3088,00;0,0300
3087,00;0,0300
3086,00;0,0299
3085,00;0,0299
3084,00;0,0299
3083,00;0,0299
3082,00;0,0298
3081,00;0,0298
3080,00;0,0298
3079,00;0,0298
3078,00;0,0298
3077,00;0,0298
3076,00;0,0298
3075,00;0,0298
3074,00;0,0298
3073,00;0,0298
3072,00;0,0297
3071,00;0,0297
3070,00;0,0297
3069,00;0,0296
3068,00;0,0296
3067,00;0,0296
3066,00;0,0296
3065,00;0,0296
3064,00;0,0295
3063,00;0,0295
3062,00;0,0295
3061,00;0,0295
3060,00;0,0295
3059,00;0,0294
3058,00;0,0294
3057,00;0,0294
3056,00;0,0294
3055,00;0,0294
3054,00;0,0293
3053,00;0,0293
3052,00;0,0293
3051,00;0,0292
3050,00;0,0292
3049,00;0,0292
3048,00;0,0292
3047,00;0,0292
3046,00;0,0291
3045,00;0,0291
3044,00;0,0291
3043,00;0,0291
3042,00;0,0290
3041,00;0,0290
3040,00;0,0290
3039,00;0,0290
3038,00;0,0290
3037,00;0,0289
3036,00;0,0289
3035,00;0,0289
3034,00;0,0289
3033,00;0,0289
3032,00;0,0289
3031,00;0,0288
3030,00;0,0288
3029,00;0,0288
3028,00;0,0288
3027,00;0,0288
3026,00;0,0288
3025,00;0,0287
3024,00;0,0287
3023,00;0,0287
3022,00;0,0286
3021,00;0,0286
3020,00;0,0286
3019,00;0,0285
3018,00;0,0285
3017,00;0,0284
3016,00;0,0284
3015,00;0,0283
3014,00;0,0283
3013,00;0,0283
3012,00;0,0283
3011,00;0,0283
3010,00;0,0283
3009,00;0,0283
3008,00;0,0283
3007,00;0,0283
3006,00;0,0282
3005,00;0,0282
3004,00;0,0281
3003,00;0,0281
3002,00;0,0281
3001,00;0,0281
3000,00;0,0281
2999,00;0,0281
2998,00;0,0280
2997,00;0,0280
2996,00;0,0280
2995,00;0,0279
2994,00;0,0279
2993,00;0,0279
2992,00;0,0278
2991,00;0,0278
2990,00;0,0277
2989,00;0,0277
2988,00;0,0276
2987,00;0,0276
2986,00;0,0276
2985,00;0,0275
2984,00;0,0275
2983,00;0,0275
2982,00;0,0274
2981,00;0,0273
2980,00;0,0273
2979,00;0,0273
2978,00;0,0272
2977,00;0,0272
2976,00;0,0271
2975,00;0,0270
2974,00;0,0269
2973,00;0,0269
2972,00;0,0268
2971,00;0,0267
2970,00;0,0266
2969,00;0,0265
2968,00;0,0264
2967,00;0,0263
2966,00;0,0262
2965,00;0,0262
2964,00;0,0261
2963,00;0,0261
2962,00;0,0260
2961,00;0,0260
2960,00;0,0259
2959,00;0,0258
2958,00;0,0257
2957,00;0,0257
2956,00;0,0256
2955,00;0,0255
2954,00;0,0255
2953,00;0,0254
2952,00;0,0254
2951,00;0,0253
2950,00;0,0253
2949,00;0,0253
2948,00;0,0252
2947,00;0,0252
2946,00;0,0251
2945,00;0,0251
2944,00;0,0250
2943,00;0,0249
2942,00;0,0248
2941,00;0,0247
2940,00;0,0247
2939,00;0,0246
2938,00;0,0245
2937,00;0,0244
2936,00;0,0244
2935,00;0,0243
2934,00;0,0242
2933,00;0,0241
2932,00;0,0240
2931,00;0,0239
2930,00;0,0238
2929,00;0,0238
2928,00;0,0237
2927,00;0,0237
2926,00;0,0236
2925,00;0,0236
2924,00;0,0236
2923,00;0,0235
2922,00;0,0235
2921,00;0,0235
2920,00;0,0235
2919,00;0,0234
2918,00;0,0234
2917,00;0,0234
2916,00;0,0233
2915,00;0,0233
2914,00;0,0232
2913,00;0,0232
2912,00;0,0232
2911,00;0,0232
2910,00;0,0232
2909,00;0,0231
2908,00;0,0231
2907,00;0,0231
2906,00;0,0231
2905,00;0,0230
2904,00;0,0230
2903,00;0,0229
2902,00;0,0229
2901,00;0,0228
2900,00;0,0227
2899,00;0,0227
2898,00;0,0226
2897,00;0,0226
2896,00;0,0226
2895,00;0,0226
2894,00;0,0226
2893,00;0,0225
2892,00;0,0225
2891,00;0,0224
2890,00;0,0224
2889,00;0,0224
2888,00;0,0223
2887,00;0,0223
2886,00;0,0222
2885,00;0,0222
2884,00;0,0221
2883,00;0,0221
2882,00;0,0220
2881,00;0,0220
2880,00;0,0220
2879,00;0,0219
2878,00;0,0218
2877,00;0,0218
2876,00;0,0217
2875,00;0,0217
2874,00;0,0216
2873,00;0,0216
2872,00;0,0216
2871,00;0,0215
2870,00;0,0215
2869,00;0,0215
2868,00;0,0214
2867,00;0,0214
2866,00;0,0213
2865,00;0,0213
2864,00;0,0212
2863,00;0,0212
2862,00;0,0211
2861,00;0,0210
2860,00;0,0209
2859,00;0,0209
2858,00;0,0209
2857,00;0,0209
2856,00;0,0209
2855,00;0,0209
2854,00;0,0208
2853,00;0,0208
2852,00;0,0207
2851,00;0,0207
2850,00;0,0207
2849,00;0,0207
2848,00;0,0207
2847,00;0,0207
2846,00;0,0207
2845,00;0,0207
2844,00;0,0207
2843,00;0,0206
2842,00;0,0206
2841,00;0,0205
2840,00;0,0205
2839,00;0,0205
2838,00;0,0205
2837,00;0,0205
2836,00;0,0205
2835,00;0,0204
2834,00;0,0204
2833,00;0,0204
2832,00;0,0204
2831,00;0,0203
2830,00;0,0203
2829,00;0,0203
2828,00;0,0203
2827,00;0,0202
2826,00;0,0202
2825,00;0,0202
2824,00;0,0201
2823,00;0,0201
2822,00;0,0200
2821,00;0,0200
2820,00;0,0200
2819,00;0,0199
2818,00;0,0199
2817,00;0,0199
2816,00;0,0198
2815,00;0,0198
2814,00;0,0197
2813,00;0,0197
2812,00;0,0196
2811,00;0,0196
2810,00;0,0195
2809,00;0,0195
2808,00;0,0195
2807,00;0,0195
2806,00;0,0194
2805,00;0,0194
2804,00;0,0193
2803,00;0,0193
2802,00;0,0192
2801,00;0,0192
2800,00;0,0192
2799,00;0,0191
2798,00;0,0191
2797,00;0,0190
2796,00;0,0190
2795,00;0,0190
2794,00;0,0189
2793,00;0,0189
2792,00;0,0188
2791,00;0,0188
2790,00;0,0187
2789,00;0,0187
2788,00;0,0187
2787,00;0,0186
2786,00;0,0186
2785,00;0,0186
2784,00;0,0185
2783,00;0,0185
2782,00;0,0185
2781,00;0,0184
2780,00;0,0184
2779,00;0,0184
2778,00;0,0183
2777,00;0,0183
2776,00;0,0182
2775,00;0,0182
2774,00;0,0182
2773,00;0,0181
2772,00;0,0181
2771,00;0,0181
2770,00;0,0180
2769,00;0,0180
2768,00;0,0179
2767,00;0,0179
2766,00;0,0179
2765,00;0,0178
2764,00;0,0178
2763,00;0,0178
2762,00;0,0178
2761,00;0,0177
2760,00;0,0177
2759,00;0,0177
2758,00;0,0176
2757,00;0,0176
2756,00;0,0176
2755,00;0,0175
2754,00;0,0175
2753,00;0,0174
2752,00;0,0174
2751,00;0,0174
2750,00;0,0173
2749,00;0,0173
2748,00;0,0173
2747,00;0,0173
2746,00;0,0172
2745,00;0,0172
2744,00;0,0172
2743,00;0,0171
2742,00;0,0171
2741,00;0,0171
2740,00;0,0170
2739,00;0,0170
2738,00;0,0170
2737,00;0,0170
2736,00;0,0169
2735,00;0,0169
2734,00;0,0169
2733,00;0,0168
2732,00;0,0168
2731,00;0,0168
2730,00;0,0167
2729,00;0,0167
2728,00;0,0167
2727,00;0,0167
2726,00;0,0166
2725,00;0,0166
2724,00;0,0166
2723,00;0,0165
2722,00;0,0165
2721,00;0,0165
2720,00;0,0165
2719,00;0,0165
2718,00;0,0164
2717,00;0,0164
2716,00;0,0164
2715,00;0,0164
2714,00;0,0163
2713,00;0,0163
2712,00;0,0163
2711,00;0,0163
2710,00;0,0162
2709,00;0,0162
2708,00;0,0162
2707,00;0,0161
2706,00;0,0161
2705,00;0,0161
2704,00;0,0161
2703,00;0,0161
2702,00;0,0161
2701,00;0,0160
2700,00;0,0160
2699,00;0,0160
2698,00;0,0160
2697,00;0,0160
2696,00;0,0159
2695,00;0,0159
2694,00;0,0159
2693,00;0,0159
2692,00;0,0159
2691,00;0,0158
2690,00;0,0158
2689,00;0,0158
2688,00;0,0157
2687,00;0,0157
2686,00;0,0157
2685,00;0,0157
2684,00;0,0156
2683,00;0,0156
2682,00;0,0156
2681,00;0,0155
2680,00;0,0155
2679,00;0,0155
2678,00;0,0155
2677,00;0,0155
2676,00;0,0154
2675,00;0,0154
2674,00;0,0154
2673,00;0,0154
2672,00;0,0154
2671,00;0,0154
2670,00;0,0154
2669,00;0,0154
2668,00;0,0154
2667,00;0,0153
2666,00;0,0153
2665,00;0,0153
2664,00;0,0153
2663,00;0,0153
2662,00;0,0153
2661,00;0,0154
2660,00;0,0154
2659,00;0,0154
2658,00;0,0154
2657,00;0,0154
2656,00;0,0154
2655,00;0,0153
2654,00;0,0153
2653,00;0,0153
2652,00;0,0152
2651,00;0,0152
2650,00;0,0152
2649,00;0,0152
2648,00;0,0152
2647,00;0,0152
2646,00;0,0152
2645,00;0,0152
2644,00;0,0151
2643,00;0,0151
2642,00;0,0151
2641,00;0,0151
2640,00;0,0151
2639,00;0,0151
2638,00;0,0150
2637,00;0,0150
2636,00;0,0149
2635,00;0,0149
2634,00;0,0149
2633,00;0,0148
2632,00;0,0148
2631,00;0,0148
2630,00;0,0148
2629,00;0,0147
2628,00;0,0147
2627,00;0,0147
2626,00;0,0147
2625,00;0,0146
2624,00;0,0146
2623,00;0,0146
2622,00;0,0145
2621,00;0,0145
2620,00;0,0145
2619,00;0,0145
2618,00;0,0144
2617,00;0,0144
2616,00;0,0144
2615,00;0,0144
2614,00;0,0144
2613,00;0,0143
2612,00;0,0143
2611,00;0,0143
2610,00;0,0142
2609,00;0,0142
2608,00;0,0142
2607,00;0,0141
2606,00;0,0141
2605,00;0,0141
2604,00;0,0141
2603,00;0,0140
2602,00;0,0140
2601,00;0,0140
2600,00;0,0139
2599,00;0,0139
2598,00;0,0139
2597,00;0,0139
2596,00;0,0138
2595,00;0,0138
2594,00;0,0138
2593,00;0,0138
2592,00;0,0137
2591,00;0,0137
2590,00;0,0137
2589,00;0,0137
2588,00;0,0136
2587,00;0,0136
2586,00;0,0136
2585,00;0,0136
2584,00;0,0136
2583,00;0,0136
2582,00;0,0135
2581,00;0,0135
2580,00;0,0135
2579,00;0,0135
2578,00;0,0135
2577,00;0,0135
2576,00;0,0135
2575,00;0,0134
2574,00;0,0134
2573,00;0,0134
2572,00;0,0134
2571,00;0,0134
2570,00;0,0134
2569,00;0,0134
2568,00;0,0134
2567,00;0,0134
2566,00;0,0134
2565,00;0,0134
2564,00;0,0133
2563,00;0,0133
2562,00;0,0133
2561,00;0,0132
2560,00;0,0132
2559,00;0,0132
2558,00;0,0132
2557,00;0,0132
2556,00;0,0132
2555,00;0,0132
2554,00;0,0132
2553,00;0,0132
2552,00;0,0132
2551,00;0,0132
2550,00;0,0132
2549,00;0,0132
2548,00;0,0132
2547,00;0,0132
2546,00;0,0132
2545,00;0,0132
2544,00;0,0131
2543,00;0,0132
2542,00;0,0132
2541,00;0,0132
2540,00;0,0132
2539,00;0,0131
2538,00;0,0131
2537,00;0,0131
2536,00;0,0131
2535,00;0,0131
2534,00;0,0131
2533,00;0,0131
2532,00;0,0131
2531,00;0,0131
2530,00;0,0131
2529,00;0,0131
2528,00;0,0130
2527,00;0,0130
2526,00;0,0130
2525,00;0,0130
2524,00;0,0130
2523,00;0,0130
2522,00;0,0130
2521,00;0,0129
2520,00;0,0129
2519,00;0,0129
2518,00;0,0129
2517,00;0,0128
2516,00;0,0128
2515,00;0,0128
2514,00;0,0127
2513,00;0,0127
2512,00;0,0127
2511,00;0,0127
2510,00;0,0127
2509,00;0,0127
2508,00;0,0127
2507,00;0,0126
2506,00;0,0126
2505,00;0,0126
2504,00;0,0126
2503,00;0,0125
2502,00;0,0125
2501,00;0,0125
2500,00;0,0125
2499,00;0,0125
2498,00;0,0125
2497,00;0,0125
2496,00;0,0125
2495,00;0,0125
2494,00;0,0124
2493,00;0,0124
2492,00;0,0124
2491,00;0,0123
2490,00;0,0123
2489,00;0,0123
2488,00;0,0123
2487,00;0,0123
2486,00;0,0123
2485,00;0,0122
2484,00;0,0122
2483,00;0,0122
2482,00;0,0122
2481,00;0,0122
2480,00;0,0122
2479,00;0,0122
2478,00;0,0122
2477,00;0,0122
2476,00;0,0122
2475,00;0,0122
2474,00;0,0122
2473,00;0,0122
2472,00;0,0122
2471,00;0,0122
2470,00;0,0122
2469,00;0,0121
2468,00;0,0121
2467,00;0,0121
2466,00;0,0121
2465,00;0,0121
2464,00;0,0121
2463,00;0,0121
2462,00;0,0121
2461,00;0,0121
2460,00;0,0121
2459,00;0,0121
2458,00;0,0121
2457,00;0,0121
2456,00;0,0121
2455,00;0,0121
2454,00;0,0121
2453,00;0,0121
2452,00;0,0121
2451,00;0,0120
2450,00;0,0120
2449,00;0,0120
2448,00;0,0120
2447,00;0,0120
2446,00;0,0119
2445,00;0,0119
2444,00;0,0119
2443,00;0,0119
2442,00;0,0119
2441,00;0,0119
2440,00;0,0119
2439,00;0,0119
2438,00;0,0119
2437,00;0,0119
2436,00;0,0119
2435,00;0,0119
2434,00;0,0118
2433,00;0,0118
2432,00;0,0118
2431,00;0,0118
2430,00;0,0118
2429,00;0,0118
2428,00;0,0118
2427,00;0,0118
2426,00;0,0117
2425,00;0,0117
2424,00;0,0117
2423,00;0,0117
2422,00;0,0117
2421,00;0,0117
2420,00;0,0117
2419,00;0,0117
2418,00;0,0117
2417,00;0,0117
2416,00;0,0117
2415,00;0,0117
2414,00;0,0117
2413,00;0,0117
2412,00;0,0117
2411,00;0,0117
2410,00;0,0116
2409,00;0,0116
2408,00;0,0116
2407,00;0,0116
2406,00;0,0115
2405,00;0,0115
2404,00;0,0114
2403,00;0,0114
2402,00;0,0114
2401,00;0,0114
2400,00;0,0114
2399,00;0,0115
2398,00;0,0115
2397,00;0,0115
2396,00;0,0115
2395,00;0,0114
2394,00;0,0114
2393,00;0,0114
2392,00;0,0114
2391,00;0,0114
2390,00;0,0114
2389,00;0,0114
2388,00;0,0114
2387,00;0,0114
2386,00;0,0114
2385,00;0,0114
2384,00;0,0114
2383,00;0,0114
2382,00;0,0114
2381,00;0,0113
2380,00;0,0113
2379,00;0,0112
2378,00;0,0113
2377,00;0,0113
2376,00;0,0113
2375,00;0,0114
2374,00;0,0114
2373,00;0,0115
2372,00;0,0115
2371,00;0,0115
2370,00;0,0116
2369,00;0,0116
2368,00;0,0117
2367,00;0,0117
2366,00;0,0117
2365,00;0,0117
2364,00;0,0117
2363,00;0,0117
2362,00;0,0117
2361,00;0,0116
2360,00;0,0116
2359,00;0,0117
2358,00;0,0117
2357,00;0,0117
2356,00;0,0117
2355,00;0,0118
2354,00;0,0118
2353,00;0,0118
2352,00;0,0118
2351,00;0,0118
2350,00;0,0118
2349,00;0,0118
2348,00;0,0118
2347,00;0,0118
2346,00;0,0118
2345,00;0,0119
2344,00;0,0119
2343,00;0,0119
2342,00;0,0119
2341,00;0,0119
2340,00;0,0119
2339,00;0,0119
2338,00;0,0119
2337,00;0,0120
2336,00;0,0120
2335,00;0,0119
2334,00;0,0119
2333,00;0,0118
2332,00;0,0118
2331,00;0,0118
2330,00;0,0118
2329,00;0,0119
2328,00;0,0120
2327,00;0,0121
2326,00;0,0122
2325,00;0,0123
2324,00;0,0123
2323,00;0,0123
2322,00;0,0122
2321,00;0,0121
2320,00;0,0121
2319,00;0,0120
2318,00;0,0120
2317,00;0,0120
2316,00;0,0120
2315,00;0,0119
2314,00;0,0119
2313,00;0,0119
2312,00;0,0119
2311,00;0,0119
2310,00;0,0118
2309,00;0,0118
2308,00;0,0117
2307,00;0,0117
2306,00;0,0117
2305,00;0,0116
2304,00;0,0116
2303,00;0,0116
2302,00;0,0117
2301,00;0,0117
2300,00;0,0117
2299,00;0,0117
2298,00;0,0117
2297,00;0,0117
2296,00;0,0117
2295,00;0,0117
2294,00;0,0117
2293,00;0,0118
2292,00;0,0117
2291,00;0,0117
2290,00;0,0117
2289,00;0,0117
2288,00;0,0117
2287,00;0,0117
2286,00;0,0118
2285,00;0,0118
2284,00;0,0117
2283,00;0,0117
2282,00;0,0116
2281,00;0,0115
2280,00;0,0114
2279,00;0,0114
2278,00;0,0113
2277,00;0,0113
2276,00;0,0113
2275,00;0,0112
2274,00;0,0112
2273,00;0,0112
2272,00;0,0111
2271,00;0,0111
2270,00;0,0111
2269,00;0,0111
2268,00;0,0112
2267,00;0,0112
2266,00;0,0111
2265,00;0,0111
2264,00;0,0110
2263,00;0,0110
2262,00;0,0109
2261,00;0,0109
2260,00;0,0109
2259,00;0,0109
2258,00;0,0109
2257,00;0,0109
2256,00;0,0109
2255,00;0,0108
2254,00;0,0108
2253,00;0,0107
2252,00;0,0107
2251,00;0,0107
2250,00;0,0107
2249,00;0,0106
2248,00;0,0106
2247,00;0,0106
2246,00;0,0106
2245,00;0,0106
2244,00;0,0106
2243,00;0,0106
2242,00;0,0106
2241,00;0,0106
2240,00;0,0106
2239,00;0,0105
2238,00;0,0105
2237,00;0,0105
2236,00;0,0105
2235,00;0,0105
2234,00;0,0105
2233,00;0,0105
2232,00;0,0105
2231,00;0,0104
2230,00;0,0104
2229,00;0,0105
2228,00;0,0105
2227,00;0,0105
2226,00;0,0105
2225,00;0,0104
2224,00;0,0104
2223,00;0,0104
2222,00;0,0103
2221,00;0,0103
2220,00;0,0103
2219,00;0,0102
2218,00;0,0102
2217,00;0,0102
2216,00;0,0102
2215,00;0,0102
2214,00;0,0102
2213,00;0,0102
2212,00;0,0102
2211,00;0,0102
2210,00;0,0101
2209,00;0,0101
2208,00;0,0101
2207,00;0,0101
2206,00;0,0101
2205,00;0,0101
2204,00;0,0101
2203,00;0,0101
2202,00;0,0101
2201,00;0,0101
2200,00;0,0101
2199,00;0,0100
2198,00;0,0101
2197,00;0,0101
2196,00;0,0101
2195,00;0,0100
2194,00;0,0100
2193,00;0,0099
2192,00;0,0099
2191,00;0,0099
2190,00;0,0099
2189,00;0,0099
2188,00;0,0099
2187,00;0,0099
2186,00;0,0099
2185,00;0,0098
2184,00;0,0098
2183,00;0,0097
2182,00;0,0096
2181,00;0,0095
2180,00;0,0096
2179,00;0,0096
2178,00;0,0097
2177,00;0,0097
2176,00;0,0096
2175,00;0,0095
2174,00;0,0094
2173,00;0,0093
2172,00;0,0094
2171,00;0,0096
2170,00;0,0098
2169,00;0,0100
2168,00;0,0101
2167,00;0,0101
2166,00;0,0100
2165,00;0,0100
2164,00;0,0100
2163,00;0,0100
2162,00;0,0099
2161,00;0,0095
2160,00;0,0091
2159,00;0,0085
2158,00;0,0081
2157,00;0,0079
2156,00;0,0079
2155,00;0,0079
2154,00;0,0079
2153,00;0,0079
2152,00;0,0080
2151,00;0,0082
2150,00;0,0083
2149,00;0,0083
2148,00;0,0082
2147,00;0,0081
2146,00;0,0081
2145,00;0,0081
2144,00;0,0083
2143,00;0,0083
2142,00;0,0084
2141,00;0,0083
2140,00;0,0082
2139,00;0,0082
2138,00;0,0080
2137,00;0,0080
2136,00;0,0079
2135,00;0,0079
2134,00;0,0078
2133,00;0,0078
2132,00;0,0078
2131,00;0,0079
2130,00;0,0079
2129,00;0,0080
2128,00;0,0081
2127,00;0,0082
2126,00;0,0083
2125,00;0,0084
2124,00;0,0084
2123,00;0,0084
2122,00;0,0084
2121,00;0,0084
2120,00;0,0085
2119,00;0,0086
2118,00;0,0088
2117,00;0,0088
2116,00;0,0089
2115,00;0,0089
2114,00;0,0089
2113,00;0,0088
2112,00;0,0088
2111,00;0,0089
2110,00;0,0089
2109,00;0,0090
2108,00;0,0090
2107,00;0,0090
2106,00;0,0090
2105,00;0,0089
2104,00;0,0089
2103,00;0,0088
2102,00;0,0087
2101,00;0,0087
2100,00;0,0087
2099,00;0,0087
2098,00;0,0087
2097,00;0,0087
2096,00;0,0086
2095,00;0,0086
2094,00;0,0086
2093,00;0,0086
2092,00;0,0087
2091,00;0,0088
2090,00;0,0089
2089,00;0,0089
2088,00;0,0090
2087,00;0,0090
2086,00;0,0090
2085,00;0,0090
2084,00;0,0090
2083,00;0,0090
2082,00;0,0089
2081,00;0,0089
2080,00;0,0089
2079,00;0,0089
2078,00;0,0089
2077,00;0,0089
2076,00;0,0089
2075,00;0,0089
2074,00;0,0089
2073,00;0,0089
2072,00;0,0089
2071,00;0,0089
2070,00;0,0089
2069,00;0,0089
2068,00;0,0089
2067,00;0,0088
2066,00;0,0088
2065,00;0,0088
2064,00;0,0088
2063,00;0,0088
2062,00;0,0088
2061,00;0,0088
2060,00;0,0088
2059,00;0,0088
2058,00;0,0088
2057,00;0,0088
2056,00;0,0088
2055,00;0,0088
2054,00;0,0088
2053,00;0,0089
2052,00;0,0090
2051,00;0,0090
2050,00;0,0090
2049,00;0,0089
2048,00;0,0088
2047,00;0,0087
2046,00;0,0086
2045,00;0,0086
2044,00;0,0085
2043,00;0,0085
2042,00;0,0084
2041,00;0,0084
2040,00;0,0084
2039,00;0,0084
2038,00;0,0084
2037,00;0,0085
2036,00;0,0085
2035,00;0,0084
2034,00;0,0083
2033,00;0,0082
2032,00;0,0082
2031,00;0,0082
2030,00;0,0081
2029,00;0,0081
2028,00;0,0081
2027,00;0,0081
2026,00;0,0080
2025,00;0,0079
2024,00;0,0078
2023,00;0,0078
2022,00;0,0078
2021,00;0,0078
2020,00;0,0078
2019,00;0,0078
2018,00;0,0078
2017,00;0,0077
2016,00;0,0077
2015,00;0,0077
2014,00;0,0077
2013,00;0,0077
2012,00;0,0076
2011,00;0,0076
2010,00;0,0076
2009,00;0,0075
2008,00;0,0075
2007,00;0,0075
2006,00;0,0074
2005,00;0,0074
2004,00;0,0075
2003,00;0,0075
2002,00;0,0075
2001,00;0,0076
2000,00;0,0076
1999,00;0,0076
1998,00;0,0076
1997,00;0,0076
1996,00;0,0076
1995,00;0,0076
1994,00;0,0076
1993,00;0,0075
1992,00;0,0075
1991,00;0,0075
1990,00;0,0075
1989,00;0,0075
1988,00;0,0076
1987,00;0,0076
1986,00;0,0076
1985,00;0,0075
1984,00;0,0075
1983,00;0,0075
1982,00;0,0075
1981,00;0,0075
1980,00;0,0076
1979,00;0,0075
1978,00;0,0074
1977,00;0,0073
1976,00;0,0073
1975,00;0,0072
1974,00;0,0072
1973,00;0,0072
1972,00;0,0073
1971,00;0,0073
1970,00;0,0073
1969,00;0,0073
1968,00;0,0072
1967,00;0,0072
1966,00;0,0072
1965,00;0,0072
1964,00;0,0072
1963,00;0,0072
1962,00;0,0071
1961,00;0,0071
1960,00;0,0070
1959,00;0,0070
1958,00;0,0071
1957,00;0,0071
1956,00;0,0072
1955,00;0,0072
1954,00;0,0072
1953,00;0,0072
1952,00;0,0072
1951,00;0,0072
1950,00;0,0072
1949,00;0,0072
1948,00;0,0072
1947,00;0,0072
1946,00;0,0072
1945,00;0,0072
1944,00;0,0072
1943,00;0,0072
1942,00;0,0072
1941,00;0,0072
1940,00;0,0072
1939,00;0,0071
1938,00;0,0071
1937,00;0,0071
1936,00;0,0071
1935,00;0,0071
1934,00;0,0071
1933,00;0,0071
1932,00;0,0072
1931,00;0,0072
1930,00;0,0072
1929,00;0,0071
1928,00;0,0071
1927,00;0,0071
1926,00;0,0071
1925,00;0,0071
1924,00;0,0071
1923,00;0,0071
1922,00;0,0071
1921,00;0,0071
1920,00;0,0071
1919,00;0,0071
1918,00;0,0071
1917,00;0,0071
1916,00;0,0071
1915,00;0,0071
1914,00;0,0071
1913,00;0,0071
1912,00;0,0071
1911,00;0,0071
1910,00;0,0071
1909,00;0,0070
1908,00;0,0070
1907,00;0,0070
1906,00;0,0070
1905,00;0,0070
1904,00;0,0070
1903,00;0,0070
1902,00;0,0070
1901,00;0,0070
1900,00;0,0070
1899,00;0,0070
1898,00;0,0070
1897,00;0,0070
1896,00;0,0070
1895,00;0,0070
1894,00;0,0070
1893,00;0,0070
1892,00;0,0070
1891,00;0,0070
1890,00;0,0070
1889,00;0,0070
1888,00;0,0071
1887,00;0,0071
1886,00;0,0070
1885,00;0,0070
1884,00;0,0070
1883,00;0,0070
1882,00;0,0070
1881,00;0,0070
1880,00;0,0070
1879,00;0,0071
1878,00;0,0071
1877,00;0,0072
1876,00;0,0072
1875,00;0,0073
1874,00;0,0072
1873,00;0,0073
1872,00;0,0073
1871,00;0,0074
1870,00;0,0074
1869,00;0,0074
1868,00;0,0074
1867,00;0,0074
1866,00;0,0074
1865,00;0,0074
1864,00;0,0075
1863,00;0,0075
1862,00;0,0074
1861,00;0,0074
1860,00;0,0074
1859,00;0,0074
1858,00;0,0074
1857,00;0,0074
1856,00;0,0074
1855,00;0,0073
1854,00;0,0073
1853,00;0,0072
1852,00;0,0072
1851,00;0,0072
1850,00;0,0072
1849,00;0,0072
1848,00;0,0072
1847,00;0,0072
1846,00;0,0071
1845,00;0,0071
1844,00;0,0070
1843,00;0,0069
1842,00;0,0069
1841,00;0,0069
1840,00;0,0069
1839,00;0,0069
1838,00;0,0069
1837,00;0,0069
1836,00;0,0069
1835,00;0,0069
1834,00;0,0069
1833,00;0,0069
1832,00;0,0069
1831,00;0,0069
1830,00;0,0068
1829,00;0,0068
1828,00;0,0068
1827,00;0,0068
1826,00;0,0068
1825,00;0,0068
1824,00;0,0068
1823,00;0,0068
1822,00;0,0068
1821,00;0,0067
1820,00;0,0067
1819,00;0,0067
1818,00;0,0067
1817,00;0,0066
1816,00;0,0066
1815,00;0,0066
1814,00;0,0067
1813,00;0,0067
1812,00;0,0067
1811,00;0,0067
1810,00;0,0067
1809,00;0,0066
1808,00;0,0066
1807,00;0,0067
1806,00;0,0067
1805,00;0,0067
1804,00;0,0067
1803,00;0,0068
1802,00;0,0068
1801,00;0,0068
1800,00;0,0067
1799,00;0,0066
1798,00;0,0065
1797,00;0,0066
1796,00;0,0067
1795,00;0,0068
1794,00;0,0069
1793,00;0,0068
1792,00;0,0068
1791,00;0,0067
1790,00;0,0067
1789,00;0,0067
1788,00;0,0068
1787,00;0,0069
1786,00;0,0069
1785,00;0,0069
1784,00;0,0070
1783,00;0,0070
1782,00;0,0069
1781,00;0,0069
1780,00;0,0070
1779,00;0,0070
1778,00;0,0071
1777,00;0,0072
1776,00;0,0073
1775,00;0,0074
1774,00;0,0075
1773,00;0,0075
1772,00;0,0075
1771,00;0,0076
1770,00;0,0079
1769,00;0,0081
1768,00;0,0084
1767,00;0,0085
1766,00;0,0086
1765,00;0,0088
1764,00;0,0090
1763,00;0,0093
1762,00;0,0095
1761,00;0,0097
1760,00;0,0100
1759,00;0,0104
1758,00;0,0108
1757,00;0,0112
1756,00;0,0116
1755,00;0,0122
1754,00;0,0129
1753,00;0,0138
1752,00;0,0148
1751,00;0,0159
1750,00;0,0170
1749,00;0,0184
1748,00;0,0201
1747,00;0,0221
1746,00;0,0244
1745,00;0,0268
1744,00;0,0295
1743,00;0,0322
1742,00;0,0350
1741,00;0,0382
1740,00;0,0417
1739,00;0,0453
1738,00;0,0488
1737,00;0,0521
1736,00;0,0550
1735,00;0,0569
1734,00;0,0574
1733,00;0,0569
1732,00;0,0559
1731,00;0,0545
1730,00;0,0528
1729,00;0,0511
1728,00;0,0496
1727,00;0,0483
1726,00;0,0474
1725,00;0,0469
1724,00;0,0469
1723,00;0,0474
1722,00;0,0483
1721,00;0,0498
1720,00;0,0519
1719,00;0,0544
1718,00;0,0573
1717,00;0,0604
1716,00;0,0636
1715,00;0,0669
1714,00;0,0701
1713,00;0,0733
1712,00;0,0763
1711,00;0,0790
1710,00;0,0811
1709,00;0,0823
1708,00;0,0828
1707,00;0,0824
1706,00;0,0815
1705,00;0,0805
1704,00;0,0799
1703,00;0,0800
1702,00;0,0808
1701,00;0,0824
1700,00;0,0847
1699,00;0,0872
1698,00;0,0896
1697,00;0,0919
1696,00;0,0942
1695,00;0,0964
1694,00;0,0984
1693,00;0,1004
1692,00;0,1026
1691,00;0,1047
1690,00;0,1067
1689,00;0,1086
1688,00;0,1105
1687,00;0,1122
1686,00;0,1138
1685,00;0,1151
1684,00;0,1161
1683,00;0,1170
1682,00;0,1181
1681,00;0,1193
1680,00;0,1204
1679,00;0,1214
1678,00;0,1224
1677,00;0,1233
1676,00;0,1241
1675,00;0,1247
1674,00;0,1253
1673,00;0,1261
1672,00;0,1270
1671,00;0,1277
1670,00;0,1279
1669,00;0,1280
1668,00;0,1281
1667,00;0,1285
1666,00;0,1289
1665,00;0,1294
1664,00;0,1297
1663,00;0,1297
1662,00;0,1297
1661,00;0,1301
1660,00;0,1309
1659,00;0,1319
1658,00;0,1331
1657,00;0,1347
1656,00;0,1365
1655,00;0,1384
1654,00;0,1400
1653,00;0,1411
1652,00;0,1425
1651,00;0,1443
1650,00;0,1464
1649,00;0,1484
1648,00;0,1501
1647,00;0,1510
1646,00;0,1513
1645,00;0,1513
1644,00;0,1512
1643,00;0,1508
1642,00;0,1498
1641,00;0,1485
1640,00;0,1468
1639,00;0,1451
1638,00;0,1432
1637,00;0,1407
1636,00;0,1377
1635,00;0,1347
1634,00;0,1328
1633,00;0,1318
1632,00;0,1313
1631,00;0,1311
1630,00;0,1308
1629,00;0,1306
1628,00;0,1306
1627,00;0,1307
1626,00;0,1311
1625,00;0,1315
1624,00;0,1319
1623,00;0,1321
1622,00;0,1323
1621,00;0,1328
1620,00;0,1334
1619,00;0,1339
1618,00;0,1340
1617,00;0,1335
1616,00;0,1329
1615,00;0,1327
1614,00;0,1327
1613,00;0,1328
1612,00;0,1328
1611,00;0,1325
1610,00;0,1320
1609,00;0,1315
1608,00;0,1310
1607,00;0,1305
1606,00;0,1300
1605,00;0,1295
1604,00;0,1291
1603,00;0,1287
1602,00;0,1283
1601,00;0,1279
1600,00;0,1275
1599,00;0,1269
1598,00;0,1259
1597,00;0,1244
1596,00;0,1223
1595,00;0,1198
1594,00;0,1170
1593,00;0,1140
1592,00;0,1110
1591,00;0,1081
1590,00;0,1052
1589,00;0,1025
1588,00;0,1001
1587,00;0,0978
1586,00;0,0957
1585,00;0,0938
1584,00;0,0920
1583,00;0,0902
1582,00;0,0885
1581,00;0,0869
1580,00;0,0854
1579,00;0,0840
1578,00;0,0825
1577,00;0,0804
1576,00;0,0780
1575,00;0,0759
1574,00;0,0745
1573,00;0,0734
1572,00;0,0724
1571,00;0,0710
1570,00;0,0694
1569,00;0,0677
1568,00;0,0663
1567,00;0,0653
1566,00;0,0642
1565,00;0,0631
1564,00;0,0621
1563,00;0,0614
1562,00;0,0610
1561,00;0,0604
1560,00;0,0592
1559,00;0,0572
1558,00;0,0556
1557,00;0,0548
1556,00;0,0542
1555,00;0,0537
1554,00;0,0530
1553,00;0,0522
1552,00;0,0516
1551,00;0,0509
1550,00;0,0502
1549,00;0,0495
1548,00;0,0489
1547,00;0,0484
1546,00;0,0479
1545,00;0,0474
1544,00;0,0468
1543,00;0,0461
1542,00;0,0454
1541,00;0,0445
1540,00;0,0433
1539,00;0,0425
1538,00;0,0420
1537,00;0,0418
1536,00;0,0416
1535,00;0,0413
1534,00;0,0407
1533,00;0,0400
1532,00;0,0395
1531,00;0,0391
1530,00;0,0387
1529,00;0,0384
1528,00;0,0380
1527,00;0,0375
1526,00;0,0370
1525,00;0,0366
1524,00;0,0361
1523,00;0,0358
1522,00;0,0353
1521,00;0,0348
1520,00;0,0343
1519,00;0,0340
1518,00;0,0336
1517,00;0,0332
1516,00;0,0328
1515,00;0,0325
1514,00;0,0323
1513,00;0,0320
1512,00;0,0317
1511,00;0,0315
1510,00;0,0314
1509,00;0,0312
1508,00;0,0308
1507,00;0,0300
1506,00;0,0292
1505,00;0,0287
1504,00;0,0285
1503,00;0,0284
1502,00;0,0283
1501,00;0,0281
1500,00;0,0279
1499,00;0,0276
1498,00;0,0273
1497,00;0,0270
1496,00;0,0267
1495,00;0,0264
1494,00;0,0262
1493,00;0,0262
1492,00;0,0261
1491,00;0,0260
1490,00;0,0257
1489,00;0,0254
1488,00;0,0251
1487,00;0,0248
1486,00;0,0246
1485,00;0,0245
1484,00;0,0245
1483,00;0,0245
1482,00;0,0244
1481,00;0,0243
1480,00;0,0243
1479,00;0,0244
1478,00;0,0245
1477,00;0,0247
1476,00;0,0248
1475,00;0,0248
1474,00;0,0248
1473,00;0,0246
1472,00;0,0244
1471,00;0,0243
1470,00;0,0244
1469,00;0,0245
1468,00;0,0247
1467,00;0,0249
1466,00;0,0250
1465,00;0,0250
1464,00;0,0250
1463,00;0,0251
1462,00;0,0253
1461,00;0,0256
1460,00;0,0260
1459,00;0,0264
1458,00;0,0266
1457,00;0,0266
1456,00;0,0267
1455,00;0,0269
1454,00;0,0272
1453,00;0,0276
1452,00;0,0281
1451,00;0,0286
1450,00;0,0292
1449,00;0,0299
1448,00;0,0306
1447,00;0,0315
1446,00;0,0325
1445,00;0,0337
1444,00;0,0351
1443,00;0,0369
1442,00;0,0390
1441,00;0,0416
1440,00;0,0445
1439,00;0,0480
1438,00;0,0520
1437,00;0,0564
1436,00;0,0606
1435,00;0,0639
1434,00;0,0664
1433,00;0,0683
1432,00;0,0697
1431,00;0,0704
1430,00;0,0706
1429,00;0,0706
1428,00;0,0704
1427,00;0,0703
1426,00;0,0704
1425,00;0,0707
1424,00;0,0714
1423,00;0,0724
1422,00;0,0737
1421,00;0,0754
1420,00;0,0771
1419,00;0,0785
1418,00;0,0796
1417,00;0,0805
1416,00;0,0813
1415,00;0,0820
1414,00;0,0827
1413,00;0,0837
1412,00;0,0847
1411,00;0,0856
1410,00;0,0863
1409,00;0,0868
1408,00;0,0868
1407,00;0,0861
1406,00;0,0847
1405,00;0,0827
1404,00;0,0804
1403,00;0,0782
1402,00;0,0764
1401,00;0,0750
1400,00;0,0738
1399,00;0,0725
1398,00;0,0712
1397,00;0,0697
1396,00;0,0678
1395,00;0,0653
1394,00;0,0625
1393,00;0,0599
1392,00;0,0574
1391,00;0,0552
1390,00;0,0532
1389,00;0,0512
1388,00;0,0491
1387,00;0,0470
1386,00;0,0451
1385,00;0,0434
1384,00;0,0420
1383,00;0,0406
1382,00;0,0394
1381,00;0,0384
1380,00;0,0374
1379,00;0,0366
1378,00;0,0359
1377,00;0,0354
1376,00;0,0349
1375,00;0,0344
1374,00;0,0339
1373,00;0,0335
1372,00;0,0332
1371,00;0,0329
1370,00;0,0327
1369,00;0,0325
1368,00;0,0323
1367,00;0,0322
1366,00;0,0322
1365,00;0,0325
1364,00;0,0328
1363,00;0,0333
1362,00;0,0338
1361,00;0,0345
1360,00;0,0352
1359,00;0,0363
1358,00;0,0375
1357,00;0,0390
1356,00;0,0405
1355,00;0,0420
1354,00;0,0434
1353,00;0,0447
1352,00;0,0460
1351,00;0,0473
1350,00;0,0484
1349,00;0,0494
1348,00;0,0498
1347,00;0,0496
1346,00;0,0487
1345,00;0,0471
1344,00;0,0452
1343,00;0,0432
1342,00;0,0413
1341,00;0,0396
1340,00;0,0380
1339,00;0,0366
1338,00;0,0354
1337,00;0,0343
1336,00;0,0334
1335,00;0,0326
1334,00;0,0319
1333,00;0,0314
1332,00;0,0308
1331,00;0,0304
1330,00;0,0299
1329,00;0,0296
1328,00;0,0293
1327,00;0,0292
1326,00;0,0292
1325,00;0,0292
1324,00;0,0293
1323,00;0,0295
1322,00;0,0298
1321,00;0,0301
1320,00;0,0304
1319,00;0,0307
1318,00;0,0309
1317,00;0,0311
1316,00;0,0313
1315,00;0,0314
1314,00;0,0314
1313,00;0,0314
1312,00;0,0314
1311,00;0,0314
1310,00;0,0315
1309,00;0,0316
1308,00;0,0317
1307,00;0,0319
1306,00;0,0321
1305,00;0,0323
1304,00;0,0325
1303,00;0,0328
1302,00;0,0329
1301,00;0,0331
1300,00;0,0331
1299,00;0,0332
1298,00;0,0332
1297,00;0,0333
1296,00;0,0333
1295,00;0,0335
1294,00;0,0339
1293,00;0,0345
1292,00;0,0355
1291,00;0,0370
1290,00;0,0391
1289,00;0,0418
1288,00;0,0451
1287,00;0,0490
1286,00;0,0532
1285,00;0,0573
1284,00;0,0610
1283,00;0,0641
1282,00;0,0664
1281,00;0,0683
1280,00;0,0699
1279,00;0,0715
1278,00;0,0734
1277,00;0,0757
1276,00;0,0784
1275,00;0,0814
1274,00;0,0847
1273,00;0,0882
1272,00;0,0920
1271,00;0,0963
1270,00;0,1010
1269,00;0,1058
1268,00;0,1103
1267,00;0,1137
1266,00;0,1157
1265,00;0,1162
1264,00;0,1155
1263,00;0,1139
1262,00;0,1119
1261,00;0,1097
1260,00;0,1075
1259,00;0,1054
1258,00;0,1033
1257,00;0,1012
1256,00;0,0992
1255,00;0,0970
1254,00;0,0948
1253,00;0,0924
1252,00;0,0899
1251,00;0,0872
1250,00;0,0844
1249,00;0,0815
1248,00;0,0786
1247,00;0,0758
1246,00;0,0731
1245,00;0,0705
1244,00;0,0680
1243,00;0,0656
1242,00;0,0633
1241,00;0,0610
1240,00;0,0588
1239,00;0,0567
1238,00;0,0545
1237,00;0,0525
1236,00;0,0505
1235,00;0,0486
1234,00;0,0469
1233,00;0,0452
1232,00;0,0437
1231,00;0,0422
1230,00;0,0409
1229,00;0,0396
1228,00;0,0384
1227,00;0,0373
1226,00;0,0363
1225,00;0,0354
1224,00;0,0345
1223,00;0,0337
1222,00;0,0328
1221,00;0,0320
1220,00;0,0313
1219,00;0,0305
1218,00;0,0299
1217,00;0,0292
1216,00;0,0286
1215,00;0,0280
1214,00;0,0275
1213,00;0,0270
1212,00;0,0265
1211,00;0,0260
1210,00;0,0255
1209,00;0,0251
1208,00;0,0247
1207,00;0,0244
1206,00;0,0240
1205,00;0,0236
1204,00;0,0232
1203,00;0,0229
1202,00;0,0225
1201,00;0,0222
1200,00;0,0219
1199,00;0,0216
1198,00;0,0213
1197,00;0,0210
1196,00;0,0208
1195,00;0,0205
1194,00;0,0202
1193,00;0,0200
1192,00;0,0197
1191,00;0,0194
1190,00;0,0192
1189,00;0,0190
1188,00;0,0188
1187,00;0,0186
1186,00;0,0184
1185,00;0,0182
1184,00;0,0180
1183,00;0,0178
1182,00;0,0177
1181,00;0,0175
1180,00;0,0173
1179,00;0,0172
1178,00;0,0171
1177,00;0,0170
1176,00;0,0169
1175,00;0,0167
1174,00;0,0166
1173,00;0,0165
1172,00;0,0164
1171,00;0,0162
1170,00;0,0161
1169,00;0,0160
1168,00;0,0158
1167,00;0,0157
1166,00;0,0157
1165,00;0,0156
1164,00;0,0155
1163,00;0,0154
1162,00;0,0152
1161,00;0,0151
1160,00;0,0150
1159,00;0,0149
1158,00;0,0148
1157,00;0,0147
1156,00;0,0146
1155,00;0,0145
1154,00;0,0145
1153,00;0,0144
1152,00;0,0143
1151,00;0,0142
1150,00;0,0141
1149,00;0,0140
1148,00;0,0139
1147,00;0,0138
1146,00;0,0137
1145,00;0,0136
1144,00;0,0136
1143,00;0,0135
1142,00;0,0134
1141,00;0,0133
1140,00;0,0132
1139,00;0,0132
1138,00;0,0132
1137,00;0,0131
1136,00;0,0130
1135,00;0,0130
1134,00;0,0129
1133,00;0,0128
1132,00;0,0126
1131,00;0,0126
1130,00;0,0125
1129,00;0,0125
1128,00;0,0124
1127,00;0,0123
1126,00;0,0123
1125,00;0,0122
1124,00;0,0121
1123,00;0,0121
1122,00;0,0120
1121,00;0,0120
1120,00;0,0119
1119,00;0,0119
1118,00;0,0119
1117,00;0,0119
1116,00;0,0118
1115,00;0,0118
1114,00;0,0117
1113,00;0,0117
1112,00;0,0116
1111,00;0,0116
1110,00;0,0116
1109,00;0,0115
1108,00;0,0115
1107,00;0,0115
1106,00;0,0114
1105,00;0,0114
1104,00;0,0114
1103,00;0,0114
1102,00;0,0114
1101,00;0,0114
1100,00;0,0114
1099,00;0,0114
1098,00;0,0114
1097,00;0,0113
1096,00;0,0113
1095,00;0,0113
1094,00;0,0113
1093,00;0,0113
1092,00;0,0112
1091,00;0,0112
1090,00;0,0111
1089,00;0,0111
1088,00;0,0111
1087,00;0,0110
1086,00;0,0110
1085,00;0,0110
1084,00;0,0109
1083,00;0,0109
1082,00;0,0108
1081,00;0,0108
1080,00;0,0107
1079,00;0,0106
1078,00;0,0105
1077,00;0,0104
1076,00;0,0104
1075,00;0,0103
1074,00;0,0103
1073,00;0,0102
1072,00;0,0101
1071,00;0,0100
1070,00;0,0100
1069,00;0,0099
1068,00;0,0099
1067,00;0,0098
1066,00;0,0098
1065,00;0,0097
1064,00;0,0096
1063,00;0,0096
1062,00;0,0095
1061,00;0,0095
1060,00;0,0094
1059,00;0,0093
1058,00;0,0093
1057,00;0,0092
1056,00;0,0091
1055,00;0,0091
1054,00;0,0090
1053,00;0,0089
1052,00;0,0088
1051,00;0,0088
1050,00;0,0087
1049,00;0,0087
1048,00;0,0086
1047,00;0,0085
1046,00;0,0085
1045,00;0,0084
1044,00;0,0084
1043,00;0,0084
1042,00;0,0083
1041,00;0,0083
1040,00;0,0082
1039,00;0,0081
1038,00;0,0080
1037,00;0,0080
1036,00;0,0080
1035,00;0,0079
1034,00;0,0079
1033,00;0,0078
1032,00;0,0078
1031,00;0,0077
1030,00;0,0077
1029,00;0,0076
1028,00;0,0076
1027,00;0,0075
1026,00;0,0075
1025,00;0,0075
1024,00;0,0075
1023,00;0,0075
1022,00;0,0074
1021,00;0,0074
1020,00;0,0074
1019,00;0,0074
1018,00;0,0074
1017,00;0,0073
1016,00;0,0073
1015,00;0,0072
1014,00;0,0072
1013,00;0,0072
1012,00;0,0072
1011,00;0,0072
1010,00;0,0072
1009,00;0,0072
1008,00;0,0071
1007,00;0,0071
1006,00;0,0070
1005,00;0,0070
1004,00;0,0071
1003,00;0,0071
1002,00;0,0071
1001,00;0,0071
1000,00;0,0070
999,00;0,0070
998,00;0,0070
997,00;0,0070
996,00;0,0070
995,00;0,0071
994,00;0,0071
993,00;0,0071
992,00;0,0070
991,00;0,0070
990,00;0,0070
989,00;0,0070
988,00;0,0070
987,00;0,0070
986,00;0,0070
985,00;0,0070
984,00;0,0069
983,00;0,0069
982,00;0,0069
981,00;0,0069
980,00;0,0068
979,00;0,0068
978,00;0,0068
977,00;0,0068
976,00;0,0069
975,00;0,0069
974,00;0,0069
973,00;0,0068
972,00;0,0068
971,00;0,0068
970,00;0,0068
969,00;0,0067
968,00;0,0067
967,00;0,0066
966,00;0,0067
965,00;0,0067
964,00;0,0067
963,00;0,0067
962,00;0,0066
961,00;0,0066
960,00;0,0067
959,00;0,0067
958,00;0,0067
957,00;0,0067
956,00;0,0067
955,00;0,0067
954,00;0,0067
953,00;0,0066
952,00;0,0066
951,00;0,0066
950,00;0,0067
949,00;0,0067
948,00;0,0067
947,00;0,0066
946,00;0,0066
945,00;0,0066
944,00;0,0066
943,00;0,0066
942,00;0,0066
941,00;0,0066
940,00;0,0066
939,00;0,0066
938,00;0,0066
937,00;0,0066
936,00;0,0066
935,00;0,0067
934,00;0,0067
933,00;0,0068
932,00;0,0069
931,00;0,0070
930,00;0,0071
929,00;0,0072
928,00;0,0074
927,00;0,0077
926,00;0,0079
925,00;0,0082
924,00;0,0085
923,00;0,0089
922,00;0,0094
921,00;0,0099
920,00;0,0107
919,00;0,0115
918,00;0,0124
917,00;0,0133
916,00;0,0143
915,00;0,0152
914,00;0,0161
913,00;0,0168
912,00;0,0174
911,00;0,0179
910,00;0,0183
909,00;0,0187
908,00;0,0191
907,00;0,0194
906,00;0,0196
905,00;0,0196
904,00;0,0194
903,00;0,0190
902,00;0,0184
901,00;0,0175
900,00;0,0164
899,00;0,0152
898,00;0,0141
897,00;0,0130
896,00;0,0121
895,00;0,0113
894,00;0,0106
893,00;0,0100
892,00;0,0095
891,00;0,0090
890,00;0,0086
889,00;0,0082
888,00;0,0078
887,00;0,0076
886,00;0,0074
885,00;0,0074
884,00;0,0073
883,00;0,0072
882,00;0,0071
881,00;0,0071
880,00;0,0071
879,00;0,0070
878,00;0,0070
877,00;0,0069
876,00;0,0068
875,00;0,0067
874,00;0,0067
873,00;0,0066
872,00;0,0066
871,00;0,0066
870,00;0,0066
869,00;0,0066
868,00;0,0066
867,00;0,0066
866,00;0,0067
865,00;0,0066
864,00;0,0066
863,00;0,0065
862,00;0,0065
861,00;0,0066
860,00;0,0067
859,00;0,0068
858,00;0,0070
857,00;0,0072
856,00;0,0075
855,00;0,0081
854,00;0,0089
853,00;0,0096
852,00;0,0101
851,00;0,0101
850,00;0,0096
849,00;0,0090
848,00;0,0086
847,00;0,0083
846,00;0,0084
845,00;0,0086
844,00;0,0088
843,00;0,0090
842,00;0,0091
841,00;0,0093
840,00;0,0096
839,00;0,0099
838,00;0,0103
837,00;0,0108
836,00;0,0113
835,00;0,0119
834,00;0,0126
833,00;0,0136
832,00;0,0147
831,00;0,0160
830,00;0,0175
829,00;0,0192
828,00;0,0212
827,00;0,0235
826,00;0,0261
825,00;0,0291
824,00;0,0325
823,00;0,0362
822,00;0,0401
821,00;0,0441
820,00;0,0480
819,00;0,0519
818,00;0,0556
817,00;0,0590
816,00;0,0621
815,00;0,0648
814,00;0,0671
813,00;0,0690
812,00;0,0705
811,00;0,0717
810,00;0,0726
809,00;0,0732
808,00;0,0738
807,00;0,0742
806,00;0,0744
805,00;0,0745
804,00;0,0743
803,00;0,0739
802,00;0,0733
801,00;0,0724
800,00;0,0711
799,00;0,0693
798,00;0,0672
797,00;0,0646
796,00;0,0618
795,00;0,0588
794,00;0,0558
793,00;0,0529
792,00;0,0502
791,00;0,0476
790,00;0,0453
789,00;0,0431
788,00;0,0412
787,00;0,0394
786,00;0,0380
785,00;0,0367
784,00;0,0356
783,00;0,0346
782,00;0,0336
781,00;0,0328
780,00;0,0321
779,00;0,0314
778,00;0,0309
777,00;0,0305
776,00;0,0302
775,00;0,0301
774,00;0,0300
773,00;0,0301
772,00;0,0304
771,00;0,0309
770,00;0,0316
769,00;0,0325
768,00;0,0337
767,00;0,0352
766,00;0,0371
765,00;0,0395
764,00;0,0423
763,00;0,0456
762,00;0,0492
761,00;0,0530
760,00;0,0568
759,00;0,0601
758,00;0,0627
757,00;0,0640
756,00;0,0638
755,00;0,0620
754,00;0,0588
753,00;0,0547
752,00;0,0503
751,00;0,0463
750,00;0,0428
749,00;0,0398
748,00;0,0374
747,00;0,0353
746,00;0,0336
745,00;0,0323
744,00;0,0312
743,00;0,0303
742,00;0,0297
741,00;0,0292
740,00;0,0288
739,00;0,0284
738,00;0,0280
737,00;0,0278
736,00;0,0276
735,00;0,0276
734,00;0,0275
733,00;0,0275
732,00;0,0274
731,00;0,0273
730,00;0,0272
729,00;0,0270
728,00;0,0269
727,00;0,0267
726,00;0,0265
725,00;0,0265
724,00;0,0266
723,00;0,0267
722,00;0,0269
721,00;0,0271
720,00;0,0273
719,00;0,0274
718,00;0,0275
717,00;0,0275
716,00;0,0275
715,00;0,0275
714,00;0,0276
713,00;0,0278
712,00;0,0279
711,00;0,0280
710,00;0,0280
709,00;0,0280
708,00;0,0280
707,00;0,0280
706,00;0,0281
705,00;0,0282
704,00;0,0282
703,00;0,0282
702,00;0,0281
701,00;0,0280
700,00;0,0278
699,00;0,0276
698,00;0,0274
697,00;0,0272
696,00;0,0270
695,00;0,0269
694,00;0,0267
693,00;0,0265
692,00;0,0263
691,00;0,0261
690,00;0,0257
689,00;0,0253
688,00;0,0250
687,00;0,0247
686,00;0,0244
685,00;0,0241
684,00;0,0238
683,00;0,0235
682,00;0,0233
681,00;0,0230
680,00;0,0226
679,00;0,0221
678,00;0,0216
677,00;0,0212
676,00;0,0210
675,00;0,0208
674,00;0,0206
673,00;0,0203
672,00;0,0200
671,00;0,0197
670,00;0,0195
669,00;0,0192
668,00;0,0187
667,00;0,0182
666,00;0,0178
665,00;0,0173
664,00;0,0169
663,00;0,0165
662,00;0,0161
661,00;0,0159
660,00;0,0156
659,00;0,0152
658,00;0,0148
657,00;0,0144
656,00;0,0141
655,00;0,0139
654,00;0,0138
653,00;0,0135
652,00;0,0132
651,00;0,0129
650,00;0,0127
649,00;0,0125
648,00;0,0122
647,00;0,0120
646,00;0,0117
645,00;0,0114
644,00;0,0112
643,00;0,0110
642,00;0,0108
641,00;0,0106
640,00;0,0103
639,00;0,0099
638,00;0,0096
637,00;0,0093
636,00;0,0092
635,00;0,0091
634,00;0,0091
633,00;0,0090
632,00;0,0088
631,00;0,0084
630,00;0,0080
629,00;0,0076
628,00;0,0074
627,00;0,0073
626,00;0,0072
625,00;0,0073
624,00;0,0074
623,00;0,0074
622,00;0,0073
621,00;0,0072
620,00;0,0071
619,00;0,0070
618,00;0,0070
617,00;0,0069
616,00;0,0067
615,00;0,0065
614,00;0,0065
613,00;0,0066
612,00;0,0067
611,00;0,0067
610,00;0,0067
609,00;0,0066
608,00;0,0065
607,00;0,0065
606,00;0,0064
605,00;0,0065
604,00;0,0065
603,00;0,0064
602,00;0,0064
601,00;0,0065
600,00;0,0065
599,00;0,0066
598,00;0,0065
597,00;0,0065
596,00;0,0064
595,00;0,0065
594,00;0,0067
593,00;0,0071
592,00;0,0074
591,00;0,0077
590,00;0,0077
589,00;0,0077
588,00;0,0077
587,00;0,0079
586,00;0,0081
585,00;0,0084
584,00;0,0085
583,00;0,0086
582,00;0,0086
581,00;0,0088
580,00;0,0090
579,00;0,0092
578,00;0,0096
577,00;0,0100
576,00;0,0105
575,00;0,0109
574,00;0,0112
573,00;0,0115
572,00;0,0119
571,00;0,0122
570,00;0,0127
569,00;0,0133
568,00;0,0143
567,00;0,0154
566,00;0,0165
565,00;0,0178
564,00;0,0192
563,00;0,0204
562,00;0,0213
561,00;0,0219
560,00;0,0222
559,00;0,0222
558,00;0,0220
557,00;0,0219
556,00;0,0218
555,00;0,0217
554,00;0,0216
553,00;0,0219
552,00;0,0225
551,00;0,0232
550,00;0,0238
549,00;0,0244
548,00;0,0252
547,00;0,0260
546,00;0,0271
545,00;0,0284
544,00;0,0299
543,00;0,0314
542,00;0,0328
541,00;0,0338
540,00;0,0342
539,00;0,0340
538,00;0,0335
537,00;0,0327
536,00;0,0317
535,00;0,0303
534,00;0,0288
533,00;0,0278
532,00;0,0272
531,00;0,0270
530,00;0,0268
529,00;0,0267
528,00;0,0264
527,00;0,0259
526,00;0,0253
525,00;0,0246
524,00;0,0236
523,00;0,0220
522,00;0,0198
521,00;0,0174
520,00;0,0153
519,00;0,0135
518,00;0,0121
517,00;0,0109
516,00;0,0098
515,00;0,0087
514,00;0,0076
513,00;0,0069
512,00;0,0065
511,00;0,0061
510,00;0,0057
509,00;0,0051
508,00;0,0046
507,00;0,0042
506,00;0,0040
505,00;0,0044
504,00;0,0056
503,00;0,0073
502,00;0,0093
501,00;0,0120
500,00;0,0155
499,00;0,0196
498,00;0,0242
497,00;0,0289
496,00;0,0337
495,00;0,0384
494,00;0,0433
493,00;0,0485
492,00;0,0539
491,00;0,0589
490,00;0,0631
489,00;0,0666
488,00;0,0695
487,00;0,0716
486,00;0,0731
485,00;0,0744
484,00;0,0755
483,00;0,0760
482,00;0,0754
481,00;0,0742
480,00;0,0724
479,00;0,0698
478,00;0,0662
477,00;0,0619
476,00;0,0574
475,00;0,0533
474,00;0,0494
473,00;0,0459
472,00;0,0424
471,00;0,0389
470,00;0,0358
469,00;0,0336
468,00;0,0321
467,00;0,0305
466,00;0,0286
465,00;0,0264
464,00;0,0245
463,00;0,0229
462,00;0,0218
461,00;0,0212
460,00;0,0212
459,00;0,0211
458,00;0,0200
457,00;0,0179
456,00;0,0153
455,00;0,0129
454,00;0,0111
453,00;0,0098
452,00;0,0087
451,00;0,0076
450,00;0,0069
